#Acq. time (s)=	0.15444
#Accumulations=	3
#Range (cm-¹)=	-1230...1250
#Windows=	5
#Autofocus=	Off
#AutoExposure=	Off
#Spike filter=	Multiple accum.
#Delay time (s)=	0
#Binning=	1
#Readout mode=	Signal
#DeNoise=	Off
#ICS correction=	Off
#Dark correction=	Off
#Inst. Process=	Off
#Instrument=	LabRAM HR Evol
#Detector=	Emulator CCD
#Objective=	x100
#Grating=	1800 gr/mm
#ND Filter=	100%
#Laser (nm)=	512 
#Slit=	150.001
#Hole=	70.0087
#Project=	A
#Sample=	B
#Site=	C
#Title=	D_60
#Remark=	
#Date=	18.10.2017 14:24
#Acquired=	18.10.2017 14:24:01
-1229.32	437.5
-1228.62	439.006
-1227.93	450.011
-1227.24	473.017
-1226.55	416.022
-1225.86	440.028
-1225.16	424.034
-1224.47	407.039
-1223.78	426.545
-1223.09	449.55
-1222.4	417.556
-1221.7	455.061
-1221.01	418.067
-1220.32	441.073
-1219.63	451.578
-1218.94	416.084
-1218.25	431.589
-1217.55	427.095
-1216.86	456.101
-1216.17	424.106
-1215.48	428.112
-1214.79	396.117
-1214.1	402.623
-1213.41	420.628
-1212.72	405.134
-1212.02	474.14
-1211.33	399.145
-1210.64	444.651
-1209.95	427.656
-1209.26	458.162
-1208.57	440.168
-1207.88	408.173
-1207.19	462.679
-1206.5	453.684
-1205.81	460.69
-1205.12	419.695
-1204.43	437.201
-1203.74	429.707
-1203.05	398.212
-1202.36	419.218
-1201.67	422.223
-1200.98	417.729
-1200.29	446.235
-1199.6	411.24
-1198.91	410.246
-1198.22	424.251
-1197.53	445.257
-1196.84	450.762
-1196.15	418.268
-1195.46	454.274
-1194.77	405.279
-1194.08	427.285
-1193.39	405.29
-1192.7	419.296
-1192.01	398.302
-1191.32	406.807
-1190.64	415.313
-1189.95	404.818
-1189.26	396.324
-1188.57	434.329
-1187.88	406.335
-1187.19	437.341
-1186.5	393.346
-1185.81	389.352
-1185.13	409.857
-1184.44	431.863
-1183.75	405.369
-1183.06	425.874
-1182.37	442.88
-1181.68	414.385
-1180.99	444.891
-1180.31	478.396
-1179.62	424.902
-1178.93	418.408
-1178.24	458.913
-1177.55	431.419
-1176.87	464.424
-1176.18	434.93
-1175.49	419.936
-1174.8	416.441
-1174.11	398.947
-1173.43	396.952
-1172.74	430.458
-1172.05	417.964
-1171.36	396.469
-1170.68	412.475
-1169.99	425.48
-1169.3	411.486
-1168.61	407.991
-1167.93	406.497
-1167.24	385.503
-1166.55	397.508
-1165.87	400.514
-1165.18	454.019
-1164.49	406.525
-1163.81	381.53
-1163.12	422.536
-1162.43	388.542
-1161.75	400.547
-1161.06	419.553
-1160.37	414.558
-1159.69	397.564
-1159	393.57
-1158.31	438.575
-1157.63	411.581
-1156.94	428.586
-1156.25	418.592
-1155.57	418.598
-1154.88	395.603
-1154.2	402.109
-1153.51	421.614
-1152.82	401.62
-1152.14	390.625
-1151.45	389.631
-1150.77	415.137
-1150.08	414.642
-1149.4	453.148
-1148.71	397.653
-1148.03	432.659
-1147.34	412.664
-1146.65	448.67
-1145.97	411.176
-1145.28	429.681
-1144.6	385.187
-1143.91	404.692
-1143.23	437.198
-1142.54	410.204
-1141.86	416.709
-1141.17	425.715
-1140.49	425.72
-1139.8	407.726
-1139.12	395.732
-1138.44	429.237
-1137.75	384.743
-1137.07	431.748
-1136.38	425.754
-1135.7	396.759
-1135.01	460.265
-1134.33	416.271
-1133.64	430.276
-1132.96	431.282
-1132.28	436.287
-1131.59	389.293
-1130.91	378.799
-1130.22	399.304
-1129.54	419.81
-1128.86	419.315
-1128.17	429.321
-1127.49	426.326
-1126.81	397.832
-1126.12	381.838
-1125.44	378.843
-1124.75	373.849
-1124.07	396.854
-1123.39	404.36
-1122.71	387.366
-1122.02	391.371
-1121.34	391.877
-1120.66	378.882
-1119.97	407.888
-1119.29	412.893
-1118.61	390.399
-1117.92	375.905
-1117.24	420.41
-1116.56	440.416
-1115.88	413.921
-1115.19	462.427
-1114.51	447.933
-1113.83	373.938
-1113.15	372.944
-1112.46	451.949
-1111.78	391.455
-1111.1	381.46
-1110.42	414.966
-1109.73	401.972
-1109.05	387.477
-1108.37	398.483
-1107.69	444.988
-1107.01	413.994
-1106.32	403.5
-1105.64	401.005
-1104.96	397.011
-1104.28	391.516
-1103.6	388.022
-1102.92	409.527
-1102.23	378.033
-1101.55	408.539
-1100.87	388.044
-1100.19	402.55
-1099.51	391.555
-1098.83	382.561
-1098.15	402.567
-1097.46	396.072
-1096.78	394.078
-1096.1	397.083
-1095.42	394.089
-1094.74	447.094
-1094.06	408.6
-1093.38	417.106
-1092.7	368.611
-1092.02	399.617
-1091.34	449.122
-1090.66	375.128
-1089.98	444.134
-1089.3	370.139
-1088.62	388.645
-1087.93	406.65
-1087.25	389.156
-1086.57	415.161
-1085.89	395.167
-1085.21	394.673
-1084.53	403.178
-1083.85	387.684
-1083.17	388.189
-1082.49	418.695
-1081.82	376.201
-1081.14	434.206
-1080.45	388.712
-1079.78	408.217
-1079.1	376.223
-1078.42	393.229
-1077.74	399.234
-1077.06	398.24
-1076.38	388.245
-1075.7	397.751
-1075.02	405.256
-1074.34	409.762
-1073.66	388.268
-1072.98	372.773
-1072.3	387.279
-1071.63	378.784
-1070.95	440.79
-1070.27	384.296
-1069.59	421.801
-1068.91	410.307
-1068.23	424.312
-1067.55	403.818
-1066.88	440.323
-1066.2	374.329
-1065.52	425.835
-1064.84	412.34
-1064.16	394.346
-1063.48	377.851
-1062.81	424.357
-1062.13	391.863
-1061.45	386.868
-1060.77	396.374
-1060.09	380.379
-1059.41	415.885
-1058.74	397.89
-1058.06	373.396
-1057.38	421.402
-1056.7	401.407
-1056.03	411.913
-1055.35	416.918
-1054.67	396.424
-1053.99	403.93
-1053.32	367.435
-1052.64	380.441
-1051.96	373.446
-1051.29	376.452
-1050.61	431.957
-1049.93	396.963
-1049.25	363.469
-1048.58	404.474
-1047.9	369.98
-1047.22	424.485
-1046.55	394.991
-1045.87	415.997
-1045.19	391.502
-1044.52	425.008
-1043.84	392.513
-1043.16	370.519
-1042.49	424.024
-1041.81	393.03
-1041.14	383.536
-1040.46	394.041
-1039.78	369.547
-1039.11	407.052
-1038.43	399.058
-1037.75	371.564
-1037.08	402.569
-1036.4	382.575
-1035.73	420.58
-1035.05	395.086
-1034.38	363.591
-1033.7	423.097
-1033.03	368.603
-1032.35	384.608
-1031.67	444.614
-1031	391.119
-1030.32	360.625
-1029.65	430.631
-1028.97	424.136
-1028.3	377.142
-1027.62	393.647
-1026.95	386.153
-1026.27	362.658
-1025.6	400.164
-1024.92	384.67
-1024.25	384.175
-1023.57	382.681
-1022.9	366.686
-1022.22	400.692
-1021.55	382.698
-1020.87	390.703
-1020.2	365.709
-1019.53	394.714
-1018.85	405.72
-1018.18	359.225
-1017.5	374.231
-1016.83	446.237
-1016.15	391.742
-1015.48	390.748
-1014.81	419.753
-1014.13	408.759
-1013.46	373.265
-1012.78	402.27
-1012.11	355.776
-1011.44	387.281
-1010.76	409.787
-1010.09	390.793
-1009.42	407.798
-1008.74	393.804
-1008.07	378.809
-1007.4	428.315
-1006.72	400.82
-1006.05	396.326
-1005.38	387.332
-1004.7	358.837
-1004.03	409.343
-1003.36	370.348
-1002.68	385.854
-1002.01	355.86
-1001.34	405.365
-1000.66	428.871
-999.992	419.376
-999.319	367.382
-998.647	376.887
-997.974	365.893
-997.301	396.899
-996.629	385.904
-995.957	374.91
-995.285	380.915
-994.612	370.921
-993.94	379.927
-993.268	391.932
-992.595	393.438
-991.923	401.943
-991.252	420.949
-990.58	372.954
-989.908	366.96
-989.236	385.966
-988.565	401.471
-987.893	387.977
-987.221	379.982
-986.549	382.988
-985.878	385.494
-985.206	399.999
-984.535	355.005
-983.864	394.51
-983.192	400.016
-982.521	411.021
-981.85	394.527
-981.179	388.533
-980.507	405.538
-979.837	353.044
-979.166	381.049
-978.494	396.555
-977.824	386.061
-977.153	379.066
-976.483	378.572
-975.812	387.077
-975.142	416.583
-974.471	359.088
-973.801	356.094
-973.13	354.1
-972.46	391.105
-971.789	402.111
-971.119	357.116
-970.448	372.622
-969.779	392.128
-969.108	407.633
-968.439	386.639
-967.768	377.144
-967.099	367.15
-966.429	368.155
-965.759	381.161
-965.089	371.667
-964.419	393.672
-963.75	369.178
-963.081	382.183
-962.41	395.189
-961.741	417.195
-961.072	416.7
-960.402	362.206
-959.733	351.211
-959.064	422.217
-958.394	371.222
-957.725	349.228
-957.057	356.234
-956.388	411.239
-955.718	405.745
-955.05	395.25
-954.381	351.756
-953.712	386.762
-953.044	386.267
-952.374	385.273
-951.706	363.778
-951.038	361.284
-950.369	362.789
-949.701	396.795
-949.033	364.301
-948.365	392.306
-947.697	390.312
-947.027	410.817
-946.359	371.823
-945.691	373.829
-945.023	356.334
-944.355	384.84
-943.688	348.345
-943.02	385.351
-942.352	354.856
-941.684	387.362
-941.017	353.868
-940.349	346.373
-939.681	382.379
-939.014	399.384
-938.346	359.39
-937.679	389.896
-937.011	346.401
-936.344	382.407
-935.678	391.912
-935.011	372.418
-934.344	395.924
-933.676	387.929
-933.009	421.935
-932.342	391.44
-931.675	375.946
-931.008	418.451
-930.342	356.457
-929.675	394.463
-929.008	396.468
-928.342	366.474
-927.675	387.979
-927.009	398.485
-926.343	387.991
-925.676	370.496
-925.009	380.002
-924.344	359.007
-923.677	403.013
-923.011	388.018
-922.346	404.024
-921.679	372.53
-921.013	381.535
-920.348	377.041
-919.682	362.546
-919.015	344.552
-918.35	392.558
-917.684	381.563
-917.018	347.569
-916.353	377.574
-915.687	357.58
-915.023	381.085
-914.357	416.591
-913.692	359.597
-913.026	379.602
-912.362	363.608
-911.696	410.613
-911.031	386.619
-910.366	360.125
-909.701	405.63
-909.036	356.636
-908.372	363.641
-907.706	371.147
-907.042	387.152
-906.376	365.158
-905.712	375.664
-905.047	396.669
-904.383	381.675
-903.719	373.68
-903.054	403.686
-902.39	357.692
-901.726	394.697
-901.061	408.203
-900.397	354.708
-899.734	394.714
-899.069	367.719
-898.405	382.225
-897.741	352.731
-897.077	392.736
-896.413	342.742
-895.75	362.747
-895.086	359.753
-894.422	420.759
-893.758	399.264
-893.095	358.27
-892.432	381.275
-891.768	374.781
-891.104	341.786
-890.441	386.792
-889.778	380.298
-889.115	369.303
-888.452	394.809
-887.789	400.814
-887.126	354.82
-886.463	379.826
-885.799	353.831
-885.136	361.837
-884.474	414.842
-883.811	369.848
-883.148	359.853
-882.486	400.859
-881.823	345.865
-881.161	377.37
-880.498	381.376
-879.836	385.381
-879.173	362.887
-878.511	351.893
-877.849	402.898
-877.187	387.404
-876.524	345.909
-875.862	357.915
-875.2	377.921
-874.539	345.926
-873.877	375.932
-873.215	361.937
-872.553	350.943
-871.891	359.948
-871.229	360.454
-870.568	395.96
-869.907	383.965
-869.245	343.471
-868.584	379.976
-867.922	377.482
-867.26	394.487
-866.6	356.993
-865.939	374.999
-865.277	350.004
-864.616	391.01
-863.956	377.515
-863.294	353.021
-862.633	355.527
-861.973	352.532
-861.312	390.038
-860.651	362.043
-859.99	380.049
-859.33	386.555
-858.669	394.56
-858.009	411.566
-857.348	356.571
-856.687	418.577
-856.027	361.082
-855.367	341.088
-854.707	406.094
-854.046	352.599
-853.386	358.105
-852.726	373.61
-852.066	389.116
-851.406	375.622
-850.746	355.127
-850.086	384.133
-849.426	418.138
-848.767	359.144
-848.107	364.149
-847.448	355.155
-846.789	361.661
-846.128	338.166
-845.469	416.172
-844.809	377.177
-844.15	376.183
-843.492	341.189
-842.832	339.194
-842.173	342.2
-841.513	339.205
-840.854	363.211
-840.196	348.216
-839.537	348.222
-838.877	352.728
-838.219	384.233
-837.56	355.239
-836.901	379.244
-836.242	363.75
-835.584	414.756
-834.926	377.261
-834.267	417.267
-833.608	335.272
-832.95	352.278
-832.292	373.283
-831.634	384.789
-830.975	350.795
-830.317	343.8
-829.659	387.306
-829.001	386.811
-828.343	343.317
-827.686	384.323
-827.028	336.328
-826.37	355.334
-825.711	364.839
-825.054	368.345
-824.396	390.85
-823.739	360.856
-823.081	359.862
-822.424	364.867
-821.766	348.373
-821.109	359.378
-820.452	369.384
-819.794	358.89
-819.137	343.395
-818.48	356.901
-817.823	353.906
-817.166	411.412
-816.509	385.417
-815.853	357.923
-815.196	363.429
-814.539	375.934
-813.882	386.94
-813.225	391.945
-812.568	333.451
-811.912	350.957
-811.255	359.462
-810.6	373.968
-809.943	365.473
-809.286	353.479
-808.63	354.984
-807.973	401.99
-807.318	363.996
-806.662	388.001
-806.005	372.007
-805.349	404.512
-804.694	343.518
-804.038	369.524
-803.382	349.529
-802.727	374.535
-802.07	407.54
-801.414	354.546
-800.76	357.552
-800.104	363.557
-799.448	335.563
-798.793	359.068
-798.137	385.074
-797.481	373.579
-796.827	386.585
-796.171	354.591
-795.517	372.596
-794.861	342.602
-794.207	360.607
-793.551	374.113
-792.897	350.118
-792.241	372.624
-791.586	370.63
-790.932	343.635
-790.278	356.641
-789.622	378.646
-788.968	374.652
-788.313	376.658
-787.659	339.663
-787.004	348.169
-786.35	340.674
-785.695	340.68
-785.041	365.686
-784.388	382.191
-783.733	363.197
-783.079	344.702
-782.425	355.208
-781.771	388.713
-781.117	378.719
-780.464	348.725
-779.809	413.23
-779.156	378.736
-778.502	357.741
-777.849	370.747
-777.194	347.753
-776.541	331.758
-775.888	332.764
-775.235	336.769
-774.581	374.775
-773.927	362.78
-773.274	332.786
-772.622	391.792
-771.969	397.797
-771.316	337.803
-770.662	365.808
-770.009	391.814
-769.356	353.82
-768.703	343.825
-768.051	357.831
-767.398	377.836
-766.745	345.842
-766.093	355.847
-765.44	409.353
-764.788	352.859
-764.136	401.364
-763.483	370.87
-762.831	386.875
-762.179	393.381
-761.526	349.387
-760.874	383.392
-760.222	361.398
-759.57	361.403
-758.918	344.909
-758.266	390.914
-757.614	376.92
-756.962	348.926
-756.31	354.931
-755.658	327.937
-755.006	382.942
-754.356	360.948
-753.704	356.454
-753.052	356.959
-752.4	358.965
-751.749	361.47
-751.097	331.976
-750.447	350.981
-749.795	372.487
-749.144	356.493
-748.493	358.998
-747.842	380.004
-747.191	343.009
-746.54	404.515
-745.889	358.521
-745.239	343.026
-744.588	348.032
-743.936	368.037
-743.287	346.043
-742.636	388.048
-741.985	349.554
-741.335	335.06
-740.684	341.065
-740.034	355.071
-739.383	332.576
-738.733	340.082
-738.083	348.088
-737.432	354.093
-736.783	358.099
-736.133	351.104
-735.483	381.11
-734.833	369.615
-734.183	328.121
-733.533	348.127
-732.884	365.132
-732.233	365.638
-731.584	345.143
-730.934	345.149
-730.285	330.155
-729.635	384.16
-728.986	349.666
-728.337	361.171
-727.687	361.677
-727.038	355.183
-726.388	401.188
-725.74	331.194
-725.091	346.199
-724.441	363.705
-723.792	340.71
-723.144	384.716
-722.494	361.222
-721.846	358.227
-721.197	384.233
-720.549	366.238
-719.899	363.744
-719.251	375.25
-718.603	359.255
-717.955	388.261
-717.305	374.266
-716.657	327.272
-716.009	348.277
-715.361	383.283
-714.713	336.289
-714.065	342.794
-713.416	404.3
-712.768	341.305
-712.12	355.811
-711.472	328.317
-710.825	352.322
-710.177	361.828
-709.529	386.333
-708.882	334.339
-708.234	343.344
-707.587	345.85
-706.939	341.356
-706.292	366.361
-705.644	351.367
-704.997	347.372
-704.349	376.878
-703.702	379.884
-703.055	331.389
-702.408	370.395
-701.761	342.9
-701.113	327.406
-700.466	381.911
-699.819	377.417
-699.172	334.423
-698.525	365.928
-697.878	392.934
-697.233	369.439
-696.586	363.445
-695.939	362.451
-695.292	350.456
-694.646	342.462
-694	365.467
-693.354	335.473
-692.707	364.978
-692.061	368.484
-691.414	346.49
-690.769	361.495
-690.122	360.001
-689.476	381.006
-688.831	355.512
-688.185	339.018
-687.538	345.523
-686.893	344.529
-686.247	348.534
-685.601	360.04
-684.956	363.545
-684.31	386.051
-683.664	394.557
-683.02	323.562
-682.374	357.568
-681.729	357.573
-681.083	380.579
-680.437	394.585
-679.793	397.09
-679.147	388.096
-678.503	367.101
-677.857	356.607
-677.213	362.612
-676.567	396.618
-675.923	379.624
-675.277	362.629
-674.633	386.635
-673.989	326.64
-673.344	400.146
-672.7	366.652
-672.054	327.657
-671.41	373.663
-670.766	323.668
-670.121	354.674
-669.477	390.679
-668.832	331.685
-668.189	349.691
-667.545	377.696
-666.9	371.202
-666.256	361.707
-665.613	350.713
-664.969	325.719
-664.324	328.724
-663.681	347.23
-663.037	336.735
-662.394	356.241
-661.749	355.746
-661.106	386.752
-660.463	346.758
-659.82	378.763
-659.176	375.769
-658.532	344.774
-657.889	363.78
-657.246	365.286
-656.603	335.791
-655.96	328.797
-655.317	375.302
-654.674	361.308
-654.031	353.814
-653.388	365.819
-652.745	398.825
-652.103	408.83
-651.459	364.836
-650.816	354.841
-650.173	358.347
-649.531	361.853
-648.888	365.858
-648.246	339.364
-647.605	342.869
-646.962	351.375
-646.32	359.881
-645.677	330.886
-645.035	361.392
-644.393	333.397
-643.751	361.903
-643.108	402.408
-642.466	354.914
-641.824	369.42
-641.183	379.925
-640.541	343.931
-639.899	392.936
-639.258	364.442
-638.616	360.948
-637.974	334.953
-637.333	336.959
-636.691	335.464
-636.05	399.47
-635.408	363.975
-634.768	329.981
-634.126	333.987
-633.484	390.992
-632.844	352.498
-632.203	369.003
-631.561	390.509
-630.921	324.015
-630.28	332.02
-629.638	354.526
-628.998	355.031
-628.357	364.037
-627.716	360.542
-627.076	380.548
-626.435	378.554
-625.795	371.059
-625.154	345.065
-624.514	358.07
-623.873	344.576
-623.234	324.582
-622.593	368.587
-621.953	368.593
-621.312	367.098
-620.673	347.104
-620.032	324.109
-619.393	334.115
-618.752	386.621
-618.113	339.126
-617.472	338.148
-616.833	352.451
-616.194	325.631
-615.553	342.587
-614.914	367.178
-614.274	360.135
-613.635	375.706
-612.996	371.943
-612.356	324.62
-611.717	333.497
-611.078	368.195
-610.439	331.184
-609.799	359.559
-609.16	379.385
-608.521	342.045
-607.883	354.396
-607.243	371.455
-606.604	352.287
-605.966	385.143
-605.327	324.221
-604.687	349.67
-604.049	367.242
-603.41	352.233
-602.772	351.095
-602.134	373.923
-601.495	351.959
-600.857	356.22
-600.219	349.375
-599.58	374.761
-598.941	347.796
-598.303	373.914
-597.665	359.132
-597.027	368.233
-596.389	364.609
-595.751	361.684
-595.113	353.753
-594.476	359.519
-593.838	382.199
-593.2	340.121
-592.562	335.003
-591.925	342.316
-591.287	339.672
-590.649	346.208
-590.013	352.121
-589.375	327.567
-588.738	353.493
-588.101	355.166
-587.463	330.924
-586.826	336.458
-586.188	346.65
-585.552	357.597
-584.915	339.115
-584.278	374.984
-583.641	342.916
-583.004	370.434
-582.368	344.547
-581.731	327.208
-581.094	349.39
-580.457	361.186
-579.821	345.175
-579.184	340.736
-578.547	338.623
-577.912	356.015
-577.275	344.76
-576.638	355.358
-576.003	336.147
-575.366	334.841
-574.73	340.84
-574.094	336.614
-573.458	343.854
-572.821	335.265
-572.186	340.094
-571.55	338.262
-570.915	355.567
-570.278	369.396
-569.643	369.717
-569.007	354.826
-568.372	350.496
-567.736	370.662
-567.101	353.822
-566.465	339.162
-565.83	339.272
-565.194	342.964
-564.56	344.598
-563.924	344.822
-563.289	346.019
-562.654	355.34
-562.019	353.175
-561.384	366.021
-560.748	358.643
-560.114	347.055
-559.48	353.152
-558.844	365.011
-558.21	350.524
-557.575	326.805
-556.94	329.189
-556.306	341.96
-555.672	349.018
-555.037	336.039
-554.402	321.713
-553.768	341.582
-553.134	360.171
-552.75	348.933
-552.11	332.433
-551.469	391.434
-550.829	330.434
-550.187	337.435
-549.546	331.435
-548.906	339.936
-548.265	398.937
-547.624	372.437
-546.984	356.438
-546.344	373.938
-545.704	377.939
-545.063	333.94
-544.423	381.94
-543.783	335.941
-543.143	318.441
-542.502	325.442
-541.863	333.443
-541.222	363.943
-540.583	336.444
-539.942	341.944
-539.303	343.445
-538.663	341.445
-538.024	324.446
-537.384	361.447
-536.744	322.447
-536.105	323.448
-535.465	332.448
-534.826	329.449
-534.187	373.45
-533.547	361.95
-532.908	327.451
-532.269	345.451
-531.629	343.952
-530.99	327.453
-530.352	327.453
-529.712	346.954
-529.073	329.454
-528.434	362.955
-527.796	325.956
-527.156	343.456
-526.518	359.457
-525.879	356.457
-525.241	365.458
-524.601	348.458
-523.963	345.459
-523.325	342.96
-522.687	371.46
-522.048	321.461
-521.409	338.461
-520.771	376.962
-520.133	358.963
-519.495	338.463
-518.857	372.964
-518.219	313.964
-517.581	322.465
-516.943	363.966
-516.305	340.466
-515.668	352.967
-515.03	383.967
-514.391	326.468
-513.753	339.968
-513.116	379.969
-512.478	340.47
-511.841	346.47
-511.203	333.471
-510.566	313.471
-509.93	379.472
-509.292	358.473
-508.655	330.973
-508.018	355.474
-507.38	315.474
-506.743	329.475
-506.106	379.976
-505.469	377.976
-504.832	356.977
-504.195	327.477
-503.558	325.478
-502.922	353.478
-502.285	337.479
-501.648	349.98
-501.011	377.48
-500.375	339.981
-499.739	371.481
-499.102	378.982
-498.466	320.483
-497.829	332.483
-497.193	339.984
-496.557	316.484
-495.921	353.485
-495.284	324.486
-494.649	331.486
-494.013	337.987
-493.376	330.987
-492.741	334.988
-492.105	371.489
-491.469	352.989
-490.834	332.49
-490.198	315.99
-489.561	348.491
-488.927	340.491
-488.291	316.492
-487.656	317.493
-487.02	332.993
-486.384	319.494
-485.749	325.494
-485.113	398.495
-484.479	332.496
-483.843	339.496
-483.209	343.997
-482.573	339.497
-481.939	356.998
-481.303	313.499
-480.669	381.499
-480.033	337.5
-479.399	336
-478.764	321.501
-478.129	337.001
-477.495	322.502
-476.86	311.503
-476.226	349.503
-475.591	321.504
-474.957	332.504
-474.323	350.005
-473.688	352.506
-473.054	320.506
-472.42	352.007
-471.785	317.007
-471.151	343.508
-470.518	349.509
-469.883	332.009
-469.249	315.51
-468.616	336.51
-467.982	313.011
-467.348	364.512
-466.714	352.012
-466.081	331.013
-465.447	367.513
-464.813	371.514
-464.18	367.014
-463.546	325.515
-462.913	342.016
-462.28	349.016
-461.647	344.517
-461.013	318.017
-460.379	344.018
-459.746	380.519
-459.114	368.019
-458.481	379.52
-457.848	327.52
-457.215	362.521
-456.582	321.522
-455.949	371.022
-455.317	340.023
-454.684	361.523
-454.051	332.024
-453.419	317.525
-452.786	321.025
-452.154	345.526
-451.521	316.526
-450.889	324.527
-450.256	346.527
-449.624	333.528
-448.992	351.029
-448.359	357.029
-447.727	374.03
-447.095	362.03
-446.463	352.531
-445.831	359.532
-445.199	351.532
-444.568	337.533
-443.936	360.033
-443.304	326.534
-442.672	346.535
-442.04	364.535
-441.408	319.536
-440.778	398.536
-440.146	362.037
-439.514	344.537
-438.883	342.538
-438.252	338.539
-437.621	315.539
-436.989	344.54
-436.357	317.54
-435.727	373.541
-435.096	338.542
-434.464	364.042
-433.834	328.043
-433.203	339.043
-432.572	335.544
-431.942	356.045
-431.31	349.545
-430.679	333.046
-430.049	356.546
-429.418	336.047
-428.789	357.548
-428.158	333.548
-427.527	325.549
-426.897	351.549
-426.266	384.05
-425.636	317.55
-425.006	325.551
-424.376	322.552
-423.745	347.552
-423.116	326.553
-422.485	325.053
-421.856	312.554
-421.225	352.055
-420.596	377.055
-419.967	326.556
-419.336	373.556
-418.707	375.557
-418.077	333.558
-417.448	315.558
-416.817	346.559
-416.188	342.559
-415.559	322.56
-414.929	327.06
-414.3	342.561
-413.671	375.562
-413.041	324.562
-412.413	338.063
-411.784	364.563
-411.155	325.564
-410.525	312.565
-409.897	333.065
-409.268	328.566
-408.639	359.566
-408.01	328.067
-407.381	361.568
-406.753	342.568
-406.124	359.569
-405.495	339.569
-404.867	354.07
-404.238	339.57
-403.61	327.071
-402.982	346.572
-402.354	371.572
-401.726	366.073
-401.098	368.573
-400.468	383.074
-399.84	323.575
-399.212	339.575
-398.584	340.576
-397.957	343.576
-397.329	330.577
-396.701	343.578
-396.073	344.578
-395.445	343.579
-394.818	349.579
-394.19	348.58
-393.563	361.081
-392.935	309.581
-392.307	334.582
-391.68	344.582
-391.053	320.583
-390.425	319.583
-389.798	325.584
-389.172	340.585
-388.544	380.085
-387.917	362.586
-387.29	331.586
-386.663	339.587
-386.036	351.088
-385.409	373.088
-384.783	324.089
-384.156	379.089
-383.529	362.59
-382.902	362.591
-382.275	336.591
-381.649	385.592
-381.022	331.592
-380.396	340.093
-379.769	340.594
-379.143	351.594
-378.517	352.095
-377.89	317.595
-377.265	384.096
-376.638	313.596
-376.012	363.097
-375.385	321.098
-374.76	337.598
-374.134	346.599
-373.509	346.599
-372.882	342.6
-372.256	311.601
-371.631	348.601
-371.005	324.602
-370.38	315.602
-369.754	377.103
-369.129	325.104
-368.503	376.104
-367.877	364.105
-367.252	322.605
-366.626	366.606
-366.002	322.606
-365.376	345.107
-364.751	329.108
-364.127	315.608
-363.501	349.609
-362.877	359.609
-362.251	355.61
-361.627	345.611
-361.001	350.611
-360.377	324.612
-359.753	359.112
-359.127	351.613
-358.503	345.614
-357.879	328.114
-357.253	322.615
-356.629	316.615
-356.005	355.116
-355.38	334.617
-354.756	388.617
-354.132	363.118
-353.507	350.618
-352.883	380.619
-352.26	322.619
-351.636	315.62
-351.011	329.621
-350.387	332.621
-349.764	318.622
-349.14	324.622
-348.516	330.623
-347.892	356.624
-347.268	343.124
-346.645	351.625
-346.021	342.625
-345.398	361.626
-344.775	321.127
-344.151	311.627
-343.528	350.628
-342.904	366.128
-342.281	332.129
-341.658	324.63
-341.034	362.63
-340.411	315.631
-339.788	349.131
-339.165	328.132
-338.542	346.132
-337.92	309.633
-337.297	335.134
-336.674	312.634
-336.051	372.635
-335.428	336.135
-334.806	307.636
-334.183	370.137
-333.562	362.137
-332.939	332.638
-332.316	322.638
-331.694	350.139
-331.072	354.639
-330.449	341.14
-329.827	327.141
-329.204	311.641
-328.583	341.642
-327.961	322.142
-327.339	344.643
-326.717	369.144
-326.094	350.644
-325.474	343.145
-324.851	340.145
-324.229	398.146
-323.607	337.647
-322.987	369.647
-322.365	328.148
-321.743	346.648
-321.122	339.649
-320.5	332.65
-319.879	346.65
-319.258	347.151
-318.636	313.651
-318.015	353.152
-317.394	350.652
-316.773	353.653
-316.151	349.654
-315.531	368.654
-314.91	318.655
-314.289	337.655
-313.668	349.156
-313.048	341.657
-312.427	324.157
-311.805	339.158
-311.185	331.158
-310.564	349.659
-309.944	343.16
-309.324	373.66
-308.703	333.661
-308.083	307.661
-307.462	340.162
-306.843	361.663
-306.222	356.663
-305.602	382.164
-304.981	356.164
-304.362	369.665
-303.742	327.665
-303.121	347.666
-302.502	326.167
-301.882	354.167
-301.262	336.668
-300.643	376.668
-300.023	351.169
-299.403	348.17
-298.783	319.67
-298.164	328.671
-297.544	344.171
-296.925	359.672
-296.306	311.673
-295.687	349.173
-295.068	333.174
-294.447	308.674
-293.829	356.175
-293.21	329.175
-292.591	343.676
-291.972	326.677
-291.352	310.677
-290.733	350.178
-290.115	366.678
-289.496	330.679
-288.877	347.18
-288.259	338.68
-287.64	380.181
-287.022	307.681
-286.403	314.182
-285.785	394.683
-285.165	358.183
-284.547	334.684
-283.928	332.684
-283.31	316.185
-282.692	346.185
-282.074	349.186
-281.456	356.687
-280.839	358.687
-280.221	349.688
-279.603	349.688
-278.985	313.689
-278.367	367.69
-277.749	378.19
-277.131	367.191
-276.513	346.691
-275.895	369.192
-275.277	330.193
-274.66	332.693
-274.043	351.694
-273.425	345.194
-272.808	313.195
-272.19	350.696
-271.573	337.696
-270.956	322.197
-270.339	370.197
-269.721	314.698
-269.104	338.698
-268.488	312.699
-267.871	330.7
-267.253	318.7
-266.636	353.201
-266.02	343.201
-265.403	355.702
-264.786	382.203
-264.17	347.203
-263.553	314.704
-262.936	320.204
-262.32	324.705
-261.703	387.706
-261.087	320.706
-260.471	341.707
-259.854	338.707
-259.238	339.208
-258.622	344.209
-258.006	331.709
-257.389	334.21
-256.774	324.71
-256.157	342.711
-255.542	327.711
-254.925	374.212
-254.31	376.213
-253.694	337.713
-253.079	327.714
-252.462	365.214
-251.847	321.715
-251.232	322.716
-250.616	349.216
-250.001	356.217
-249.385	339.217
-248.77	337.718
-248.155	362.719
-247.539	355.219
-246.924	323.72
-246.309	359.22
-245.693	377.221
-245.079	334.221
-244.464	310.722
-243.848	334.723
-243.234	352.223
-242.619	324.724
-242.004	341.724
-241.389	341.225
-240.774	334.226
-240.16	307.726
-239.546	369.227
-238.93	325.727
-238.316	334.728
-237.702	358.729
-237.087	333.229
-236.473	328.73
-235.859	330.73
-235.245	350.231
-234.63	340.232
-234.016	341.732
-233.402	326.733
-232.788	358.233
-232.174	322.734
-231.56	379.734
-230.946	357.235
-230.332	319.236
-229.719	336.236
-229.105	324.237
-228.491	370.737
-227.878	378.738
-227.264	338.239
-226.651	343.739
-226.037	330.24
-225.424	333.74
-224.81	313.741
-224.197	343.242
-223.583	359.742
-222.97	329.743
-222.358	325.743
-221.745	329.244
-221.132	344.245
-220.518	370.745
-219.905	307.746
-219.292	327.746
-218.68	356.247
-218.067	330.747
-217.454	316.748
-216.841	311.749
-216.228	318.749
-215.617	350.25
-215.004	319.75
-214.391	359.251
-213.778	336.752
-213.167	308.752
-212.554	388.753
-211.941	331.753
-211.33	326.254
-210.718	360.755
-210.105	332.755
-209.494	343.256
-208.881	322.756
-208.269	327.257
-207.658	323.257
-207.045	333.758
-206.434	326.759
-205.822	373.259
-205.21	336.26
-204.599	316.76
-203.987	307.761
-203.376	324.762
-202.764	317.762
-202.153	352.263
-201.541	356.763
-200.93	347.264
-200.318	335.765
-199.707	359.265
-199.096	314.766
-198.485	315.766
-197.874	311.767
-197.263	358.267
-196.652	340.268
-196.04	320.769
-195.43	311.769
-194.82	377.27
-194.208	308.77
-193.598	339.771
-192.987	363.272
-192.376	344.272
-191.766	375.773
-191.156	315.773
-190.544	327.274
-189.934	362.775
-189.324	330.775
-188.714	353.776
-188.103	323.776
-187.493	313.777
-186.883	332.277
-186.273	351.778
-185.664	319.279
-185.053	314.779
-184.443	315.78
-183.833	317.78
-183.223	372.281
-182.614	353.782
-182.004	326.782
-181.393	318.783
-180.784	347.783
-180.174	316.784
-179.565	324.785
-178.956	339.785
-178.346	334.786
-177.737	334.286
-177.128	308.287
-176.518	358.788
-175.909	338.788
-175.3	310.289
-174.691	311.289
-174.082	327.29
-173.473	337.79
-172.864	346.791
-172.255	357.792
-171.646	330.292
-171.037	339.793
-170.428	331.793
-169.82	333.794
-169.211	325.295
-168.603	323.795
-167.994	369.796
-167.385	336.296
-166.777	360.797
-166.168	344.798
-165.561	316.798
-164.952	311.799
-164.343	353.799
-163.735	356.8
-163.127	307.801
-162.519	329.801
-161.911	332.802
-161.303	332.802
-160.696	343.803
-160.087	361.303
-159.479	323.804
-158.871	345.805
-158.264	360.305
-157.656	323.306
-157.048	360.806
-156.441	308.807
-155.833	337.308
-155.226	349.808
-154.618	337.809
-154.011	342.309
-153.404	358.81
-152.796	345.811
-152.189	323.811
-151.582	361.312
-150.975	342.812
-150.368	335.813
-149.761	320.813
-149.154	341.814
-148.547	316.815
-147.94	352.815
-147.334	318.816
-146.726	333.816
-146.12	323.817
-145.513	330.318
-144.906	365.818
-144.299	356.819
-143.693	367.819
-143.087	361.32
-142.48	356.821
-141.874	334.821
-141.268	328.322
-140.661	309.822
-140.055	329.323
-139.449	340.824
-138.843	341.824
-138.237	325.825
-137.631	357.825
-137.026	314.826
-136.419	320.826
-135.813	360.827
-135.208	373.328
-134.602	326.828
-133.996	356.329
-133.39	328.329
-132.785	365.33
-132.179	331.331
-131.574	358.831
-130.969	311.332
-130.362	359.332
-129.757	321.833
-129.152	342.834
-128.547	304.834
-127.942	342.835
-127.337	371.835
-126.732	347.336
-126.127	329.836
-125.522	338.837
-124.917	342.838
-124.312	355.338
-123.707	355.839
-123.103	320.839
-122.498	366.84
-121.893	312.341
-121.288	340.841
-120.684	317.342
-120.079	309.842
-119.475	309.343
-118.87	314.344
-118.266	313.344
-117.661	343.845
-117.057	325.345
-116.454	342.346
-115.849	345.847
-115.245	323.847
-114.641	365.848
-114.037	339.848
-113.432	335.849
-112.829	337.849
-112.225	381.35
-111.621	338.851
-111.017	346.851
-110.413	331.852
-109.81	332.352
-109.206	337.353
-108.603	319.854
-108	367.854
-107.396	304.855
-106.792	319.855
-106.19	311.856
-105.586	349.857
-104.982	358.357
-104.38	320.858
-103.776	347.358
-103.173	340.359
-102.57	320.859
-101.967	341.86
-101.365	304.861
-100.761	339.861
-100.159	328.862
-99.5557	349.362
-98.9536	359.863
-98.3503	335.364
-97.7471	322.864
-97.1451	349.865
-96.5431	328.865
-95.94	330.866
-95.3381	361.367
-94.7351	347.867
-94.1332	331.368
-93.5303	370.868
-92.9285	324.369
-92.3268	328.37
-91.724	330.37
-91.1223	347.371
-90.5196	318.871
-89.918	352.372
-89.3165	325.872
-88.7138	309.873
-88.1123	327.874
-87.5109	339.374
-86.9084	322.875
-86.307	324.875
-85.7057	355.876
-85.1044	323.377
-84.502	398.377
-83.9008	381.378
-83.2997	331.878
-82.6986	338.879
-82.0975	340.38
-81.4952	338.38
-80.8942	318.881
-80.2933	350.381
-79.6923	361.882
-79.0914	341.382
-78.4905	323.883
-77.8897	305.884
-77.2878	318.884
-76.687	354.885
-76.0863	344.385
-75.4856	380.886
-74.885	347.387
-74.2843	352.887
-73.6838	364.888
-73.0832	333.388
-72.4827	383.889
-71.8823	357.89
-71.2819	322.89
-70.6815	335.391
-70.0811	334.891
-69.4808	311.392
-68.8805	346.393
-68.2803	356.893
-67.6813	337.894
-67.0811	331.894
-66.481	348.395
-65.8809	312.895
-65.2808	318.896
-64.6808	377.397
-64.0808	344.397
-63.4809	312.398
-62.8821	326.898
-62.2823	319.899
-61.6824	321.9
-61.0826	325.9
-60.484	358.401
-59.8843	354.401
-59.2846	336.902
-58.685	358.903
-58.0865	359.903
-57.487	312.904
-56.8874	352.904
-56.2891	334.405
-55.6896	311.906
-55.0902	343.906
-54.492	325.407
-53.8926	344.407
-53.2933	326.908
-52.6952	337.908
-52.0959	312.909
-51.4967	308.91
-50.8987	325.91
-50.2996	317.411
-49.7016	324.911
-49.1026	356.912
-48.5047	319.913
-47.9057	369.413
-47.3079	346.414
-46.709	309.414
-46.1113	360.415
-45.5124	327.416
-44.9148	325.416
-44.316	314.047
-43.7185	323.856
-43.1209	346.986
-42.5223	313.365
-41.9248	324.433
-41.3262	354.245
-40.7288	310.031
-40.1315	337.609
-39.533	347.997
-38.9357	346.859
-38.3385	315.158
-37.7401	312.79
-37.143	316.02
-36.5458	338.579
-35.9476	335.313
-35.3505	330.445
-34.7535	335.406
-34.1565	318.638
-33.5584	348.262
-32.9615	333.747
-32.3646	339.345
-31.7678	344.33
-31.171	319.854
-30.573	369.104
-29.9763	346.793
-29.3796	336.218
-28.783	345.449
-28.1863	338.023
-27.5898	328.888
-26.9932	335.731
-26.3967	321.424
-25.8002	345.632
-25.2026	362.994
-24.6062	365.342
-24.0099	325.398
-23.4135	345.5
-22.8173	342.836
-22.221	314.309
-21.6248	325.635
-21.0286	321.368
-20.4325	315.693
-19.8363	320.777
-19.2414	360.539
-18.6454	325.112
-18.0494	310.273
-17.4534	352.847
-16.8575	358.759
-16.2616	330.439
-15.6658	337.587
-15.0699	334.432
-14.4742	326.066
-13.8796	335.027
-13.2839	334.267
-12.6882	319.786
-12.0926	327.932
-11.497	314.358
-10.9026	333.041
-10.307	322.985
-9.71154	359.811
-9.11608	344.276
-8.52183	344.648
-7.92644	322.608
-7.3311	348.674
-6.73695	323.544
-6.14167	340.45
-5.54644	334.348
-4.9524	333.782
-4.35723	327.487
-3.7621	322.52
-3.16817	352.524
-2.57312	344.768
-1.97926	318.428
-1.38428	330.446
-0.789328	351.519
-0.19558	348.894
0.398132	340.544
0.994136	338.309
1.58778	341.409
2.18138	356.206
2.77495	359.565
3.37081	332.429
3.9643	333.624
4.55776	320.432
5.15118	329.235
5.7469	350.675
6.34025	321.502
6.93356	326.568
7.52684	343.974
8.12008	351.63
8.71562	342.29
9.30879	369.22
9.90192	366.695
10.495	344.366
11.0881	338.128
11.6811	332.548
12.2764	337.399
12.8694	331.543
13.4623	321.379
14.0552	330.182
14.648	334.764
15.2408	332.445
15.8336	335.292
16.1311	339.152
16.7285	327.655
17.3282	334.157
17.9278	394.159
18.5274	337.661
19.1269	309.663
19.7264	329.666
20.3259	358.168
20.9253	317.67
21.5224	346.172
22.1218	359.174
22.7211	337.677
23.3204	367.179
23.9196	318.181
24.5188	351.683
25.118	346.185
25.7148	358.688
26.3139	362.19
26.913	332.192
27.512	325.194
28.111	314.696
28.7077	339.199
29.3066	315.701
29.9055	352.203
30.5043	334.705
31.1008	339.707
31.6996	319.21
32.2983	340.212
32.897	385.214
33.4957	353.216
34.092	311.218
34.6906	313.221
35.2891	353.223
35.8853	343.725
36.4838	324.727
37.0822	352.729
37.6807	345.731
38.2767	353.234
38.875	313.736
39.4733	325.238
40.0693	326.24
40.6675	337.242
41.2657	341.745
41.8615	333.247
42.4596	313.749
43.0577	350.251
43.6534	328.753
44.2514	359.256
44.8494	308.258
45.445	316.26
46.0429	306.262
46.6407	340.764
47.2363	333.267
47.834	311.269
48.4318	347.271
49.0272	333.273
49.6248	327.275
50.2202	361.278
50.8178	308.28
51.4153	316.282
52.0105	340.784
52.608	349.286
53.2032	355.289
53.8006	331.791
54.3956	335.293
54.993	319.295
55.588	316.297
56.1852	348.8
56.7825	306.302
57.3774	363.304
57.9745	358.306
58.5693	325.308
59.1664	327.811
59.7612	330.813
60.3582	335.815
60.9528	362.317
61.5498	369.319
62.1444	338.321
62.7412	347.824
63.3358	330.826
63.9326	310.828
64.527	339.83
65.1237	341.332
65.7181	317.335
66.3124	331.337
66.909	336.839
67.5033	342.341
68.0998	327.843
68.694	322.346
69.2905	338.348
69.8846	322.35
70.4787	347.852
71.0751	345.354
71.6691	319.857
72.2654	319.359
72.8593	333.361
73.4532	376.863
74.0494	342.365
74.6432	323.368
75.2393	370.37
75.8331	352.872
76.4268	369.874
77.0228	314.376
77.6164	343.879
78.21	359.881
78.8059	337.883
79.3994	328.385
79.9929	349.887
80.5887	322.39
81.1822	304.392
81.7755	347.894
82.3712	306.396
82.9645	332.398
83.5578	363.901
84.1511	308.403
84.7466	387.405
85.3398	346.407
85.9329	332.909
86.5283	328.411
87.1214	307.414
87.7144	304.416
88.3074	323.418
88.9027	306.42
89.4956	353.422
90.0885	346.425
90.6813	377.927
91.2741	321.429
91.8692	323.431
92.462	337.933
93.0547	303.436
93.6473	368.438
94.24	305.44
94.8349	312.442
95.4274	340.444
96.0199	333.447
96.6124	308.449
97.2049	341.951
97.7996	356.453
98.392	304.455
98.9843	329.958
99.5766	332.46
100.169	310.462
100.761	337.464
101.353	311.466
101.948	307.469
102.54	384.971
103.132	336.473
103.724	351.475
104.316	359.977
104.908	323.98
105.5	338.482
106.092	352.484
106.684	345.486
107.276	330.488
107.867	337.991
108.459	333.493
109.053	329.495
109.645	307.497
110.237	342.499
110.828	320.502
111.42	355.504
112.011	329.506
112.603	342.508
113.194	352.51
113.786	377.012
114.377	358.515
114.969	370.517
115.56	337.519
116.151	330.021
116.742	381.023
117.334	322.526
117.925	309.528
118.516	323.53
119.107	359.532
119.698	310.534
120.289	319.037
120.88	313.539
121.469	340.541
122.06	307.043
122.651	323.545
123.242	324.548
123.832	333.05
124.423	314.552
125.014	324.054
125.605	308.056
126.195	319.059
126.786	315.561
127.377	367.563
127.965	335.565
128.556	330.067
129.146	375.57
129.736	314.572
130.327	313.574
130.917	352.076
131.508	354.078
132.096	339.581
132.686	322.583
133.276	331.585
133.866	325.587
134.457	335.589
135.047	307.592
135.635	342.594
136.225	357.096
136.815	343.598
137.405	307.6
137.995	347.603
138.582	332.605
139.172	341.607
139.762	377.609
140.352	339.111
140.939	343.614
141.529	350.616
142.119	305.618
142.709	362.62
143.296	311.122
143.886	384.125
144.475	329.127
145.062	368.129
145.652	311.631
146.241	307.633
146.831	328.635
147.418	322.638
148.007	369.14
148.597	306.642
149.184	339.144
149.773	343.146
150.362	339.649
150.949	337.651
151.538	328.153
152.127	327.655
152.714	319.157
153.303	323.16
153.892	342.162
154.479	303.664
155.068	323.166
155.654	312.668
156.243	371.171
156.832	309.673
157.418	304.675
158.007	332.677
158.593	348.179
159.182	360.182
159.771	347.684
160.357	319.186
160.946	326.188
161.532	336.19
162.12	359.193
162.707	324.695
163.295	357.697
163.881	331.199
164.469	324.701
165.058	347.204
165.644	318.206
166.232	348.708
166.818	367.21
167.406	344.712
167.992	303.714
168.58	339.717
169.166	366.719
169.754	340.221
170.34	344.723
170.928	335.225
171.513	341.728
172.099	341.23
172.687	312.732
173.272	328.234
173.86	356.736
174.446	381.239
175.033	324.241
175.619	305.743
176.206	349.245
176.792	326.247
177.377	341.75
177.964	331.752
178.55	320.754
179.137	337.756
179.722	344.758
180.307	373.761
180.895	372.763
181.48	324.765
182.065	381.267
182.652	303.769
183.237	330.272
183.822	327.274
184.409	305.776
184.994	332.778
185.579	333.78
186.166	343.783
186.75	330.285
187.335	306.787
187.922	335.789
188.507	370.291
189.091	341.294
189.678	316.796
190.263	324.798
190.847	340.3
191.431	361.302
192.018	335.805
192.602	374.807
193.187	308.309
193.773	362.811
194.358	320.313
194.942	354.816
195.526	333.818
196.11	326.82
196.697	317.322
197.281	331.824
197.865	318.327
198.449	350.829
199.035	362.831
199.619	316.333
200.203	320.835
200.787	311.837
201.371	336.84
201.954	327.842
202.54	324.844
203.124	321.846
203.708	324.348
204.292	322.851
204.875	323.853
205.459	324.855
206.042	318.857
206.628	368.359
207.212	344.362
207.795	370.864
208.378	373.866
208.962	327.368
209.545	334.87
210.128	360.373
210.712	373.875
211.295	332.877
211.878	331.879
212.464	356.381
213.047	310.884
213.63	307.886
214.213	361.888
214.796	334.89
215.379	353.892
215.962	359.895
216.545	333.897
217.128	307.899
217.711	353.401
218.293	339.903
218.876	333.905
219.459	321.908
220.042	319.91
220.624	322.912
221.207	345.914
221.789	354.417
222.372	350.919
222.955	303.921
223.537	304.923
224.12	329.925
224.702	364.927
225.284	316.43
225.867	358.932
226.449	353.934
227.029	340.936
227.611	306.938
228.194	315.441
228.776	380.943
229.358	321.945
229.94	382.447
230.522	314.949
231.104	371.452
231.686	306.954
232.268	331.456
232.848	316.958
233.43	309.96
234.012	310.963
234.593	304.965
235.175	353.967
235.757	332.969
236.339	341.971
236.918	333.474
237.5	317.976
238.081	323.478
238.663	319.98
239.244	329.482
239.824	330.485
240.405	338.487
240.987	371.989
241.568	342.991
242.149	313.993
242.729	325.996
243.31	340.998
243.891	305
244.472	362.002
245.051	321.504
245.632	325.507
246.214	344.009
246.795	367.511
247.373	312.013
247.954	316.015
248.535	328.017
249.114	341.52
249.695	335.022
250.276	316.024
250.857	361.026
251.435	343.028
252.016	368.531
252.597	316.033
253.175	356.035
253.756	311.037
254.337	320.039
254.915	343.042
255.496	327.044
256.076	307.546
256.654	325.048
257.235	348.05
257.813	305.053
258.393	308.055
258.974	325.057
259.552	333.059
260.132	334.061
260.71	339.064
261.29	353.066
261.87	338.068
262.448	312.07
263.028	370.072
263.606	305.075
264.186	338.577
264.766	360.079
265.344	364.581
265.924	320.583
266.502	310.086
267.082	330.588
267.659	304.09
268.239	342.092
268.816	320.094
269.396	350.097
269.974	329.099
270.553	364.101
271.131	335.103
271.71	324.605
272.287	372.108
272.867	377.61
273.444	307.112
274.024	305.114
274.601	305.116
275.18	343.118
275.757	322.621
276.334	372.623
276.914	308.625
277.491	351.627
278.07	308.629
278.647	324.132
279.226	334.134
279.803	365.136
280.38	364.138
280.959	309.14
281.535	392.643
282.112	339.645
282.691	331.647
283.268	338.649
283.846	327.651
284.423	349.154
285	341.156
285.578	346.158
286.155	325.66
286.731	312.162
287.31	331.165
287.886	315.167
288.463	350.169
289.041	348.171
289.617	362.173
290.194	368.176
290.772	332.678
291.348	335.18
291.924	332.182
292.5	352.684
293.079	365.187
293.655	340.189
294.231	314.691
294.807	326.193
295.385	326.195
295.961	311.198
296.537	347.2
297.112	317.202
297.69	330.204
298.266	316.706
298.842	360.209
299.418	356.211
299.993	326.213
300.571	306.215
301.147	332.717
301.722	345.22
302.298	308.722
302.873	327.224
303.451	306.226
304.026	380.228
304.602	351.23
305.177	327.733
305.752	325.235
306.327	330.737
306.903	306.239
307.48	323.741
308.055	344.244
308.63	328.746
309.205	323.248
309.781	329.25
310.356	355.252
310.931	330.255
311.505	306.257
312.08	332.259
312.655	327.761
313.232	310.263
313.807	318.766
314.382	312.268
314.957	333.27
315.531	320.272
316.106	364.274
316.681	351.277
317.255	321.779
317.83	390.281
318.404	329.283
318.979	356.785
319.553	319.288
320.128	324.79
320.702	314.292
321.277	377.294
321.851	324.796
322.425	358.799
322.999	341.301
323.574	346.303
324.148	313.305
324.722	307.307
325.296	333.31
325.87	315.312
326.442	333.314
327.016	341.816
327.59	365.318
328.164	339.32
328.738	369.323
329.312	358.325
329.886	334.827
330.459	312.329
331.033	323.331
331.607	332.834
332.178	370.336
332.752	356.838
333.326	351.34
333.899	345.342
334.473	350.845
335.047	330.347
335.62	314.349
336.191	322.851
336.765	355.353
337.338	380.356
337.911	341.858
338.485	311.36
339.058	319.362
339.629	344.364
340.202	325.867
340.776	308.369
341.349	309.871
341.92	307.373
342.493	315.375
343.066	321.878
343.639	315.38
344.212	318.382
344.782	326.384
345.355	347.386
345.928	332.389
346.499	335.891
347.072	327.393
347.645	377.395
348.217	343.397
348.788	329.4
349.36	336.902
349.933	365.404
350.503	349.906
351.076	355.408
351.649	334.411
352.219	347.913
352.791	345.415
353.364	361.417
353.934	330.419
354.506	349.422
355.079	361.424
355.649	308.426
356.221	350.428
356.793	346.43
357.363	336.432
357.935	326.435
358.505	346.437
359.077	349.939
359.649	373.441
360.219	337.943
360.791	338.946
361.361	332.448
361.933	366.95
362.503	313.452
363.074	320.954
363.646	334.457
364.216	357.459
364.788	324.461
365.357	352.463
365.929	361.965
366.498	386.968
367.07	323.47
367.639	346.472
368.211	314.974
368.78	320.476
369.352	314.479
369.921	330.481
370.492	344.483
371.061	311.485
371.633	312.487
372.202	322.49
372.773	325.492
373.342	346.494
373.913	338.496
374.482	336.998
375.051	336.501
375.622	323.503
376.191	309.505
376.762	313.007
377.331	319.509
377.9	316.512
378.471	351.514
379.039	345.516
379.61	313.018
380.179	359.02
380.747	355.522
381.318	320.525
381.887	322.527
382.455	319.529
383.026	309.531
383.594	361.033
384.165	345.036
384.733	321.038
385.301	333.54
385.872	308.542
386.44	333.044
387.008	357.047
387.577	315.549
388.147	372.051
388.715	360.553
389.283	338.555
389.853	305.558
390.421	335.06
390.989	305.562
391.557	329.064
392.127	308.566
392.695	372.069
393.263	313.571
393.831	318.573
394.401	315.575
394.969	331.077
395.536	337.58
396.104	324.582
396.672	340.584
397.241	324.586
397.809	330.588
398.376	354.591
398.944	323.593
399.511	364.595
400.081	368.597
400.648	352.599
401.216	338.102
401.783	365.604
402.35	361.606
402.918	359.108
403.487	334.61
404.054	348.113
404.622	335.615
405.189	328.117
405.756	359.619
406.323	327.121
406.89	329.623
407.457	367.126
408.024	350.628
408.591	350.63
409.16	367.632
409.727	307.134
410.293	364.637
410.86	314.639
411.427	322.141
411.994	322.643
412.56	343.645
413.127	333.148
413.694	342.65
414.26	364.652
414.827	337.654
415.393	331.656
415.96	306.659
416.526	310.661
417.093	370.663
417.659	306.665
418.225	320.667
418.792	366.17
419.358	313.672
419.924	336.674
420.491	336.676
421.057	343.678
421.623	307.681
422.189	332.683
422.755	329.685
423.321	310.687
423.885	368.189
424.451	361.192
425.017	308.694
425.583	355.196
426.149	341.698
426.714	323.7
427.28	366.203
427.846	325.705
428.412	335.707
428.975	360.709
429.541	320.711
430.107	375.714
430.672	371.216
431.238	360.718
431.803	354.72
432.369	311.722
432.932	330.724
433.498	332.727
434.063	329.729
434.628	316.231
435.194	337.733
435.757	375.735
436.322	340.238
436.887	342.24
437.453	360.242
438.018	331.244
438.581	367.246
439.146	330.249
439.711	311.751
440.276	333.753
440.839	320.755
441.404	323.257
441.969	364.76
442.531	308.762
443.096	314.764
443.661	332.766
444.226	350.268
444.788	336.771
445.353	335.273
445.918	339.775
446.48	307.777
447.045	330.779
447.61	340.782
448.172	378.784
448.736	361.286
449.301	359.788
449.863	312.79
450.428	357.793
450.992	349.295
451.554	318.797
452.119	352.299
452.681	385.301
453.245	337.304
453.809	336.806
454.371	332.808
454.935	357.31
455.497	332.812
456.061	331.315
456.625	324.317
457.187	357.319
457.751	332.821
458.313	337.323
458.877	331.325
459.439	310.828
460.003	343.33
460.564	335.832
461.128	308.834
461.69	375.336
462.253	306.839
462.815	345.341
463.378	329.843
463.94	317.845
464.503	343.347
465.065	344.35
465.628	336.852
466.19	341.854
466.753	327.356
467.314	341.358
467.878	338.361
468.439	335.863
469.002	338.365
469.563	337.367
470.124	322.369
470.688	340.872
471.249	315.874
471.812	333.376
472.373	359.878
472.936	319.88
473.497	310.383
474.058	336.885
474.621	348.887
475.181	329.389
475.742	322.891
476.305	338.894
476.866	326.896
477.426	338.898
477.989	370.4
478.55	341.902
479.11	327.905
479.673	355.907
480.233	361.909
480.794	322.911
481.356	315.913
481.917	350.915
482.477	341.418
483.04	352.42
483.6	366.922
484.16	346.424
484.72	327.926
485.283	333.929
485.843	332.431
486.403	380.433
486.963	323.935
487.525	345.937
488.085	306.94
488.645	323.442
489.205	371.944
489.767	318.446
490.327	348.948
490.887	331.951
491.447	319.953
492.007	357.455
492.569	363.457
493.128	314.643
493.688	318.079
494.248	324.788
494.807	353.72
495.367	335.952
495.926	312.365
496.488	345.141
497.048	343
497.607	310.582
498.166	326.812
498.726	373.015
499.285	365.865
499.844	343.811
500.404	335.513
500.965	337.996
501.524	343.204
502.084	330.374
502.643	308.361
503.202	342.31
503.761	367.6
504.32	362.847
504.879	377.214
505.438	339.931
505.997	334.873
506.556	354.337
507.115	339.608
507.674	342.959
508.232	318.192
508.791	336.705
509.35	348.039
509.909	338.397
510.467	333.312
511.026	339.816
511.585	327.8
512.143	340.134
512.702	339.043
513.26	352.529
513.819	339.204
514.377	319.7
514.936	350.95
515.494	349.099
516.052	329.088
516.611	363.19
517.169	340.183
517.725	366.73
518.283	321.243
518.842	337.733
519.4	341.089
519.958	346.489
520.516	334.731
521.074	334.439
521.632	323.183
522.188	321.79
522.746	332.609
523.304	343.257
523.862	355.397
524.42	329.615
524.977	334.003
525.533	335.501
526.091	327.596
526.648	341.87
527.206	311.502
527.764	312.299
528.319	312.859
528.877	332.933
529.435	349.492
529.992	325.285
530.55	357.498
531.105	343.703
531.662	304.979
532.22	308.009
532.777	363.801
533.332	340.149
533.89	354.798
534.447	321.474
535.002	327.935
535.559	337.541
536.116	309.739
536.673	348.073
537.228	337.782
537.785	342.917
538.342	318.217
538.897	334.704
539.454	322.384
540.011	326.01
540.566	326.991
541.123	340.507
541.68	332.608
542.234	341.542
542.791	359.087
543.346	323.66
543.902	315.771
544.459	316.29
545.013	325.77
545.57	337.077
546.127	326.81
546.681	321.934
547.238	339.891
547.792	350.722
548.348	334.137
548.903	320.849
549.094	318.278
549.657	303.275
550.218	313.272
550.781	335.268
551.341	342.765
551.904	327.262
552.465	388.259
553.025	345.255
553.588	355.752
554.149	378.749
554.709	319.246
555.272	327.742
555.832	323.739
556.395	313.236
556.955	370.232
557.516	344.229
558.078	305.226
558.638	338.723
559.198	352.219
559.761	379.716
560.321	318.213
560.881	340.209
561.441	309.206
562.003	381.203
562.563	347.2
563.123	363.696
563.686	319.693
564.246	327.19
564.805	336.686
565.365	319.683
565.927	305.18
566.487	335.177
567.047	358.173
567.607	343.17
568.169	315.167
568.728	346.163
569.288	362.16
569.847	336.157
570.409	335.154
570.969	337.15
571.528	321.147
572.088	361.144
572.647	318.14
573.209	335.137
573.768	327.134
574.327	341.131
574.887	305.627
575.446	338.124
576.005	370.121
576.567	304.117
577.126	322.114
577.685	358.111
578.244	322.108
578.803	328.604
579.362	356.101
579.921	372.098
580.48	333.094
581.041	321.091
581.6	329.588
582.159	331.585
582.718	359.081
583.277	351.578
583.835	328.075
584.394	360.071
584.953	319.068
585.511	367.565
586.07	307.062
586.629	314.558
587.187	358.555
587.746	311.552
588.304	325.548
588.865	375.545
589.423	319.042
589.982	308.039
590.54	303.535
591.099	334.032
591.657	306.029
592.215	349.525
592.773	325.522
593.332	313.019
593.89	327.016
594.448	366.012
595.004	323.009
595.562	327.506
596.12	336.002
596.678	341.999
597.236	305.996
597.794	331.993
598.352	302.989
598.91	310.986
599.468	319.983
600.025	351.979
600.583	331.976
601.141	322.473
601.699	377.97
602.256	370.466
602.812	324.963
603.369	350.96
603.927	327.456
604.484	303.453
605.042	346.45
605.599	342.947
606.157	385.943
606.714	330.94
607.27	335.937
607.827	333.933
608.384	374.93
608.942	307.427
609.499	333.424
610.056	340.42
610.611	331.417
611.168	361.414
611.725	328.91
612.282	316.907
612.839	323.904
613.394	316.401
613.951	324.897
614.508	310.894
615.065	362.891
615.62	339.887
616.177	350.384
616.734	338.881
617.29	325.878
617.845	362.374
618.402	352.871
618.958	307.868
619.515	324.365
620.07	314.861
620.626	323.358
621.183	350.355
621.737	301.851
622.294	321.848
622.85	339.845
623.406	347.341
623.961	356.338
624.517	347.335
625.073	337.332
625.628	344.828
626.184	362.325
626.74	326.322
627.294	362.318
627.85	347.815
628.404	360.812
628.96	339.809
629.516	322.805
630.07	330.802
630.626	332.299
631.182	328.796
631.736	330.792
632.292	320.789
632.846	327.286
633.401	363.782
633.955	322.279
634.511	329.776
635.067	369.273
635.62	318.769
636.176	330.766
636.729	368.263
637.285	367.759
637.838	326.756
638.394	346.753
638.947	340.75
639.503	332.246
640.056	337.243
640.612	322.74
641.165	334.236
641.72	342.233
642.273	355.73
642.829	335.727
643.382	342.723
643.937	331.22
644.49	346.217
645.045	337.213
645.598	318.71
646.153	305.707
646.706	313.204
647.261	354.2
647.814	309.697
648.367	304.694
648.922	330.69
649.474	328.187
650.029	314.684
650.582	335.681
651.137	309.677
651.689	311.174
652.242	335.171
652.797	346.667
653.349	329.664
653.901	314.661
654.456	354.158
655.008	328.654
655.563	346.151
656.115	344.148
656.668	348.644
657.222	326.141
657.774	358.638
658.327	307.635
658.881	319.631
659.433	310.628
659.985	327.125
660.537	330.621
661.092	325.618
661.644	344.115
662.195	312.612
662.75	315.608
663.302	340.105
663.853	323.102
664.405	308.598
664.959	363.095
665.511	332.092
666.063	310.589
666.615	382.585
667.168	352.082
667.72	337.079
668.272	378.575
668.823	309.572
669.377	338.569
669.929	308.566
670.48	346.562
671.032	331.559
671.583	366.056
672.137	305.052
672.688	318.549
673.239	308.546
673.791	327.543
674.342	321.539
674.893	363.036
675.446	333.533
675.998	342.529
676.549	336.026
677.1	362.523
677.651	304.52
678.202	309.016
678.753	304.513
679.304	316.51
679.857	352.506
680.408	316.503
680.959	307.5
681.51	334.497
682.061	352.993
682.611	331.49
683.162	364.487
683.713	305.483
684.264	332.48
684.814	346.977
685.365	309.474
685.916	349.47
686.466	359.467
687.017	332.464
687.567	329.46
688.118	343.957
688.668	344.454
689.218	350.451
689.769	350.947
690.319	304.444
690.869	309.441
691.42	328.938
691.97	347.434
692.52	310.931
693.07	345.928
693.62	312.424
694.171	358.421
694.721	331.418
695.271	310.414
695.821	363.411
696.371	303.408
696.921	325.405
697.471	304.401
698.021	323.398
698.57	311.395
699.12	375.391
699.67	312.388
700.218	321.385
700.767	322.382
701.317	349.878
701.867	308.375
702.416	317.372
702.966	320.368
703.516	336.365
704.063	374.362
704.612	367.359
705.162	355.355
705.711	305.352
706.261	370.349
706.81	321.346
707.357	342.342
707.907	315.339
708.456	315.836
709.005	319.332
709.554	311.329
710.101	345.326
710.651	320.323
711.2	313.319
711.749	352.816
712.298	318.813
712.845	301.309
713.394	360.806
713.943	334.803
714.492	352.8
715.038	352.296
715.587	326.293
716.136	308.29
716.683	329.786
717.231	341.783
717.78	338.28
718.329	332.777
718.875	321.273
719.424	353.27
719.973	344.267
720.519	324.263
721.068	320.26
721.616	321.257
722.162	343.754
722.711	304.25
723.259	315.247
723.805	333.244
724.354	357.74
724.902	347.737
725.448	335.734
725.997	363.231
726.543	327.227
727.091	344.724
727.639	371.721
728.185	350.717
728.733	309.214
729.279	345.711
729.827	336.708
730.375	351.204
730.921	366.201
731.469	366.698
732.014	326.194
732.562	337.191
733.108	353.688
733.656	335.185
734.201	328.181
734.749	309.178
735.297	322.175
735.842	323.171
736.39	359.168
736.936	316.665
737.483	341.162
738.029	339.158
738.576	307.155
739.121	333.652
739.667	314.148
740.214	356.645
740.759	359.142
741.307	358.639
741.852	308.635
742.399	301.132
742.944	348.629
743.492	305.125
744.037	315.622
744.582	337.119
745.129	329.616
745.674	338.612
746.221	381.109
746.766	321.106
747.313	349.102
747.858	354.099
748.402	336.596
748.949	308.093
749.494	350.589
750.039	337.086
750.586	330.083
751.13	374.079
751.675	301.076
752.222	351.073
752.766	372.07
753.311	370.066
753.857	337.063
754.402	369.06
754.946	323.056
755.493	326.053
756.037	348.55
756.581	335.547
757.128	333.043
757.672	322.04
758.216	320.037
758.76	345.533
759.307	347.03
759.851	337.527
760.395	362.524
760.939	319.52
761.485	311.017
762.029	320.514
762.573	325.01
763.117	307.007
763.663	345.504
764.207	312.001
764.751	359.997
765.295	365.994
765.839	352.491
766.385	339.987
766.928	306.984
767.472	324.981
768.016	317.978
768.559	345.474
769.105	368.471
769.649	323.968
770.192	374.964
770.736	336.961
771.279	347.458
771.823	388.455
772.366	349.951
772.909	343.948
773.455	330.445
773.998	321.942
774.541	346.438
775.085	314.935
775.628	353.932
776.171	358.928
776.714	350.425
777.257	369.422
777.8	339.419
778.343	346.915
778.886	348.912
779.43	321.909
779.972	304.905
780.518	309.902
781.06	307.899
781.603	336.896
782.146	302.892
782.689	346.889
783.232	339.886
783.775	314.882
784.317	337.379
784.86	326.876
785.403	309.872
785.945	314.869
786.488	360.866
787.03	325.863
787.571	338.369
788.113	324.875
788.656	302.882
789.198	339.888
789.741	373.394
790.283	341.401
790.825	317.407
791.368	319.913
791.91	328.42
792.452	325.926
792.994	329.932
793.536	360.939
794.079	338.445
794.619	360.951
795.161	335.958
795.703	375.464
796.245	323.97
796.787	324.477
797.329	304.983
797.871	317.489
798.41	318.996
798.952	316.502
799.494	309.008
800.036	346.015
800.578	328.021
801.119	365.027
801.659	345.034
802.201	349.04
802.742	328.046
803.284	356.053
803.826	363.059
804.365	344.565
804.906	342.072
805.448	319.078
805.99	320.584
806.529	349.09
807.07	310.097
807.612	337.103
808.153	338.109
808.692	307.616
809.233	305.622
809.775	350.628
810.316	320.635
810.855	341.141
811.396	342.647
811.937	353.154
812.476	349.66
813.017	344.666
813.558	345.173
814.097	328.179
814.638	353.185
815.179	354.692
815.718	317.198
816.258	360.204
816.799	330.711
817.338	327.217
817.879	319.223
818.417	349.23
818.958	348.236
819.499	323.242
820.037	324.749
820.578	343.255
821.119	333.261
821.657	349.768
822.197	313.274
822.736	325.78
823.276	322.287
823.815	339.293
824.355	354.299
824.893	311.306
825.434	327.312
825.974	328.318
826.512	337.325
827.052	336.831
827.59	336.337
828.13	301.344
828.669	348.35
829.209	376.356
829.747	350.863
830.287	337.369
830.825	354.375
831.365	330.382
831.902	317.888
832.442	344.894
832.98	346.901
833.52	330.407
834.058	306.413
834.595	332.42
835.135	370.426
835.673	334.432
836.212	359.439
836.75	333.445
837.29	323.451
837.827	322.958
838.365	308.464
838.904	313.47
839.442	303.477
839.981	333.483
840.518	376.989
841.056	376.496
841.595	319.002
842.132	312.508
842.67	338.515
843.209	306.521
843.746	320.527
844.283	318.533
844.822	308.54
845.359	311.546
845.896	330.052
846.436	338.559
846.973	378.565
847.509	355.571
848.049	343.578
848.585	319.084
849.122	332.09
849.659	354.097
850.198	320.103
850.735	310.609
851.271	341.616
851.808	330.622
852.347	332.628
852.883	333.635
853.42	343.641
853.957	310.647
854.495	355.154
855.032	341.66
855.568	313.666
856.105	319.173
856.643	338.679
857.18	322.685
857.716	328.192
858.252	355.198
858.789	318.704
859.325	343.711
859.863	347.717
860.399	356.723
860.936	313.23
861.472	345.736
862.008	346.742
862.544	320.749
863.08	319.255
863.618	325.761
864.154	345.768
864.69	350.774
865.226	311.78
865.762	390.287
866.298	316.793
866.833	347.799
867.369	361.306
867.905	354.812
868.441	317.818
868.976	328.325
869.512	340.331
870.05	308.337
870.586	364.344
871.121	313.85
871.657	311.856
872.192	341.363
872.728	326.369
873.263	353.875
873.798	335.382
874.334	351.888
874.869	355.394
875.405	306.901
875.94	315.907
876.475	336.913
877.01	351.92
877.546	307.926
878.081	324.932
878.614	340.439
879.149	318.945
879.684	322.951
880.219	358.958
880.754	342.464
881.289	370.47
881.824	376.977
882.359	366.983
882.894	347.989
883.429	309.995
883.964	319.002
884.498	343.008
885.031	347.514
885.566	338.021
886.101	346.027
886.635	345.533
887.17	307.04
887.704	306.046
888.239	332.052
888.772	331.559
889.306	351.565
889.841	341.571
890.375	332.078
890.909	340.584
891.444	346.09
891.976	330.597
892.51	320.103
893.045	335.109
893.579	330.116
894.111	328.622
894.645	371.128
895.18	358.135
895.714	334.641
896.248	316.147
896.78	302.154
897.314	318.16
897.848	321.166
898.38	310.173
898.914	315.679
899.448	324.685
899.982	335.692
900.514	318.698
901.047	350.704
901.581	308.211
902.113	339.717
902.647	327.223
903.18	361.73
903.712	330.236
904.246	323.242
904.779	326.249
905.311	336.255
905.844	356.261
906.378	366.768
906.909	317.774
907.443	331.28
907.976	313.287
908.508	325.293
909.041	320.299
909.572	363.806
910.106	303.312
910.639	376.318
911.17	313.325
911.703	351.331
912.235	318.337
912.768	340.844
913.299	376.85
913.832	307.356
914.365	327.863
914.896	304.369
915.429	352.875
915.96	356.882
916.493	306.388
917.024	341.394
917.557	304.401
918.087	335.407
918.62	328.413
919.151	363.419
919.684	326.426
920.214	307.432
920.747	340.438
921.278	337.445
921.81	315.951
922.341	317.457
922.871	338.464
923.404	376.97
923.934	308.476
924.467	349.483
924.997	379.489
925.53	303.495
926.06	365.502
926.59	335.008
927.123	305.514
927.653	368.521
928.185	346.027
928.715	357.033
929.246	338.54
929.778	326.546
930.308	312.552
930.838	337.559
931.37	346.065
931.9	344.571
932.43	317.578
932.962	345.584
933.492	340.59
934.022	318.597
934.554	363.603
935.083	358.609
935.613	352.116
936.145	341.622
936.675	308.628
937.205	305.635
937.736	327.641
938.266	347.647
938.795	328.654
939.325	336.16
939.857	322.666
940.386	314.673
940.916	357.679
941.445	333.685
941.974	320.692
942.506	331.698
943.035	303.704
943.565	331.711
944.094	341.717
944.625	337.223
945.155	306.73
945.684	327.236
946.213	339.242
946.742	332.249
947.271	323.255
947.802	341.761
948.331	317.768
948.86	320.274
949.389	307.28
949.918	363.787
950.447	359.293
950.976	322.799
951.507	355.806
952.036	309.812
952.565	358.818
953.094	340.825
953.622	314.331
954.151	360.837
954.68	329.844
955.208	309.35
955.737	344.856
956.266	360.862
956.794	317.369
957.323	363.875
957.851	332.882
958.382	343.888
958.91	331.894
959.439	314.9
959.967	313.907
960.495	317.913
961.024	347.919
961.552	310.926
962.08	353.932
962.608	362.938
963.137	333.945
963.665	354.951
964.193	387.957
964.719	364.964
965.247	321.47
965.775	387.476
966.303	328.983
966.831	315.989
967.359	335.495
967.887	321.002
968.415	333.008
968.943	358.514
969.471	325.021
969.998	334.527
970.526	334.533
971.054	313.04
971.58	328.046
972.107	325.052
972.635	331.059
973.163	341.065
973.69	309.071
974.218	306.078
974.745	346.584
975.271	362.09
975.798	357.597
976.326	338.603
976.853	327.109
977.381	317.116
977.908	334.122
978.433	341.128
978.96	349.635
979.488	360.141
980.015	304.147
980.542	339.154
981.067	355.16
981.594	376.166
982.122	310.173
982.649	336.179
983.174	332.685
983.701	319.692
984.228	356.198
984.755	335.204
985.279	335.211
985.806	334.217
986.333	342.223
986.858	342.73
987.385	331.736
987.912	345.742
988.436	374.749
988.963	388.255
989.49	349.261
990.014	332.768
990.541	326.274
991.068	381.28
991.592	307.287
992.119	345.793
992.645	387.799
993.17	350.806
993.696	348.135
994.222	373.326
994.747	367.336
995.273	314.798
995.797	308.228
996.324	371.215
996.85	344.161
997.374	325.806
997.9	339.031
998.424	351.716
998.951	313.656
999.475	325.912
1000	340.195
1000.52	362.835
1001.05	342.523
1001.58	341.172
1002.1	348.808
1002.63	336.769
1003.15	325.913
1003.68	320.985
1004.2	354.192
1004.73	333.672
1005.25	330.426
1005.78	319.286
1006.3	343.445
1006.82	351.757
1007.35	331.808
1007.87	334.004
1008.4	331.278
1008.92	352.421
1009.45	320.058
1009.97	318.365
1010.5	356.176
1011.02	364.004
1011.54	352.312
1012.07	356.389
1012.59	348.948
1013.12	367.218
1013.64	350.566
1014.16	326.516
1014.69	335.231
1015.21	348.416
1015.73	350.427
1016.26	337.527
1016.78	325.481
1017.31	323.535
1017.83	324.587
1018.35	341.514
1018.88	333.126
1019.4	326.995
1019.92	326.721
1020.45	335.688
1020.97	320.775
1021.5	330.041
1022.02	319.605
1022.54	336.1
1023.07	323.021
1023.59	318.95
1024.11	316.14
1024.64	333.866
1025.16	338.62
1025.68	331.517
1026.2	344.586
1026.73	326.942
1027.25	328.572
1027.77	325.794
1028.3	323.062
1028.82	320.975
1029.34	344.181
1029.86	332.092
1030.39	330.555
1030.91	338.964
1031.43	341.029
1031.95	347.223
1032.48	313.235
1033	336.585
1033.52	327.394
1034.04	333.701
1034.57	343.64
1035.09	341.768
1035.61	341.398
1036.13	343.275
1036.66	346.877
1037.18	331.06
1037.7	341.53
1038.22	331.844
1038.74	330.489
1039.27	356.701
1039.79	347.252
1040.31	371.946
1040.83	327.353
1041.35	356.453
1041.87	322.423
1042.4	364.58
1042.92	346.797
1043.44	316.792
1043.96	317.123
1044.48	347.833
1045.01	338.911
1045.53	323.484
1046.05	364.793
1046.57	346.995
1047.09	339.013
1047.61	317.688
1048.13	362.633
1048.65	350.186
1049.17	331.178
1049.21	329.618
1049.74	352.108
1050.27	369.098
1050.79	353.088
1051.32	353.077
1051.85	315.067
1052.37	304.057
1052.9	359.047
1053.43	349.536
1053.96	361.026
1054.48	344.516
1055.01	368.006
1055.53	352.996
1056.06	372.985
1056.59	320.975
1057.11	365.965
1057.64	348.955
1058.17	314.944
1058.69	343.434
1059.22	316.924
1059.75	322.914
1060.27	342.904
1060.8	313.893
1061.32	346.883
1061.85	309.873
1062.38	321.863
1062.91	351.352
1063.43	302.842
1063.96	339.832
1064.48	329.322
1065.01	340.811
1065.53	349.801
1066.06	384.791
1066.59	326.781
1067.11	351.771
1067.64	338.26
1068.16	329.75
1068.69	359.74
1069.22	375.73
1069.74	315.219
1070.27	310.709
1070.79	355.699
1071.32	355.689
1071.84	328.678
1072.37	349.168
1072.89	358.158
1073.42	362.148
1073.94	338.638
1074.47	340.627
1074.99	306.617
1075.52	350.607
1076.04	319.597
1076.57	340.086
1077.09	344.076
1077.62	351.566
1078.14	331.056
1078.67	345.045
1079.19	347.535
1079.72	307.525
1080.24	367.515
1080.77	326.005
1081.29	329.994
1081.82	350.984
1082.34	304.474
1082.87	383.964
1083.39	305.453
1083.92	322.943
1084.44	335.933
1084.96	337.423
1085.49	356.412
1086.01	356.402
1086.54	400.392
1087.06	343.882
1087.59	349.372
1088.11	311.861
1088.63	385.851
1089.16	341.341
1089.68	303.331
1090.2	331.32
1090.73	319.31
1091.25	318.8
1091.78	349.79
1092.3	315.279
1092.83	337.269
1093.35	319.259
1093.87	319.249
1094.4	325.739
1094.92	332.228
1095.44	369.718
1095.97	316.208
1096.49	374.698
1097.01	339.187
1097.54	319.177
1098.06	343.167
1098.58	314.157
1099.11	364.646
1099.63	363.136
1100.15	345.126
1100.68	353.116
1101.2	327.606
1101.72	320.095
1102.25	318.085
1102.77	348.075
1103.29	328.065
1103.82	329.554
1104.34	359.544
1104.86	323.034
1105.38	316.024
1105.91	344.013
1106.43	348.003
1106.95	354.993
1107.47	308.983
1108	336.973
1108.52	325.962
1109.04	321.952
1109.56	347.442
1110.08	331.932
1110.61	362.421
1111.13	351.911
1111.65	339.901
1112.17	324.391
1112.7	347.88
1113.22	322.87
1113.74	345.36
1114.26	334.85
1114.79	324.34
1115.31	383.829
1115.83	316.819
1116.35	303.809
1116.87	349.299
1117.4	333.788
1117.92	309.278
1118.44	323.768
1118.96	350.758
1119.48	309.248
1120	316.737
1120.52	356.727
1121.05	353.717
1121.57	337.207
1122.09	311.696
1122.61	321.686
1123.13	352.676
1123.65	349.666
1124.17	382.655
1124.7	357.145
1125.22	321.635
1125.74	359.125
1126.26	341.115
1126.78	352.604
1127.3	344.594
1127.82	355.584
1128.34	324.074
1128.86	310.563
1129.38	334.053
1129.91	336.043
1130.43	315.533
1130.95	344.022
1131.47	341.012
1131.99	332.502
1132.51	340.992
1133.03	325.482
1133.55	356.971
1134.07	366.461
1134.59	349.451
1135.11	321.941
1135.63	335.43
1136.15	338.42
1136.67	353.41
1137.19	336.9
1137.71	370.889
1138.23	336.879
1138.75	304.369
1139.27	331.359
1139.79	321.349
1140.31	307.338
1140.83	315.328
1141.35	356.318
1141.87	328.308
1142.39	332.297
1142.91	336.287
1143.43	350.277
1143.95	319.767
1144.47	321.757
1144.99	334.746
1145.51	341.236
1146.03	318.726
1146.55	368.216
1147.07	304.205
1147.59	320.195
1148.11	307.185
1148.63	344.175
1149.15	325.664
1149.67	347.654
1150.18	374.144
1150.7	359.634
1151.22	325.124
1151.74	313.113
1152.26	310.103
1152.78	341.593
1153.3	309.083
1153.82	366.572
1154.34	353.062
1154.86	371.052
1155.38	341.042
1155.89	311.031
1156.41	333.521
1156.93	346.511
1157.45	304.001
1157.97	341.991
1158.49	326.98
1159	335.97
1159.52	320.46
1160.04	390.45
1160.56	327.439
1161.08	307.929
1161.6	339.919
1162.11	368.909
1162.63	315.898
1163.15	315.888
1163.67	309.878
1164.19	347.368
1164.7	331.858
1165.22	305.847
1165.74	321.337
1166.26	314.827
1166.78	337.317
1167.29	308.806
1167.81	347.296
1168.33	328.286
1168.85	303.776
1169.37	344.765
1169.88	341.255
1170.4	306.745
1170.92	303.735
1171.44	323.725
1171.95	341.214
1172.47	364.704
1172.99	311.694
1173.51	327.184
1174.02	353.673
1174.54	360.163
1175.06	303.653
1175.58	348.143
1176.09	382.132
1176.61	365.622
1177.13	306.612
1177.64	315.102
1178.16	338.592
1178.68	354.581
1179.19	330.071
1179.71	360.561
1180.23	349.551
1180.74	326.54
1181.26	323.53
1181.78	326.02
1182.29	322.01
1182.81	353.499
1183.33	371.489
1183.84	310.479
1184.36	312.469
1184.88	319.459
1185.39	320.448
1185.91	365.438
1186.42	326.928
1186.94	369.918
1187.46	338.407
1187.97	346.397
1188.49	315.887
1189.01	365.377
1189.52	348.367
1190.04	324.856
1190.55	357.346
1191.07	364.336
1191.59	341.326
1192.1	359.315
1192.62	380.805
1193.13	329.795
1193.65	391.285
1194.17	323.274
1194.68	347.264
1195.2	315.754
1195.71	333.244
1196.23	327.234
1196.74	359.223
1197.26	325.213
1197.77	331.203
1198.29	358.193
1198.8	347.182
1199.32	343.172
1199.84	314.162
1200.35	330.152
1200.87	324.641
1201.38	308.631
1201.9	337.621
1202.41	325.611
1202.93	304.101
1203.44	392.09
1203.96	369.08
1204.47	309.07
1204.98	306.06
1205.5	344.549
1206.02	337.039
1206.53	343.029
1207.04	326.019
1207.56	348.508
1208.07	309.998
1208.59	307.988
1209.1	336.478
1209.62	314.968
1210.13	361.957
1210.64	317.947
1211.16	318.437
1211.68	359.427
1212.19	327.416
1212.7	346.906
1213.22	316.896
1213.73	307.886
1214.25	339.375
1214.76	342.365
1215.27	363.855
1215.79	351.845
1216.3	335.835
1216.82	359.324
1217.33	319.814
1217.84	323.304
1218.36	372.794
1218.87	331.283
1219.38	311.773
1219.9	376.263
1220.41	329.753
1220.93	343.742
1221.44	349.232
1221.95	329.722
1222.47	324.712
1222.98	316.702
1223.49	334.691
1224	339.181
1224.52	347.171
1225.03	366.161
1225.54	346.65
1226.06	357.14
1226.57	304.63
1227.08	337.62
1227.6	369.609
1228.11	362.599
1228.62	310.089
1229.14	334.579
1229.65	355.569
1230.16	320.558
1230.67	339.048
1231.19	325.038
1231.7	341.528
1232.21	351.517
1232.72	372.007
1233.24	328.497
1233.75	310.487
1234.26	381.477
1234.77	358.466
1235.29	330.956
1235.8	323.446
1236.31	333.936
1236.83	338.425
1237.34	322.415
1237.85	341.905
1238.36	304.395
1238.87	321.884
1239.38	318.374
1239.9	364.364
1240.41	334.854
1240.92	342.344
1241.43	361.833
1241.95	353.823
1242.46	349.813
1242.97	375.803
1243.48	346.792
1243.99	337.782
1244.5	306.272
1245.02	310.262
1245.53	331.751
1246.04	349.741
1246.55	345.731
1247.06	306.221
1247.57	304.211
1248.08	317.2
1248.6	303.19
1249.11	316.18
1249.62	335.17
