#Acq. time (s)=	3
#Accumulations=	5
#Range (cm-¹)=	-400...1000
#Windows=	3
#Autofocus=	Off
#AutoExposure=	Off
#Spike filter=	Off
#Delay time (s)=	0
#Binning=	1
#Readout mode=	Signal
#DeNoise=	Off
#ICS correction=	Off
#Dark correction=	Off
#Inst. Process=	Off
#Instrument=	LabRAM HR Evol
#Detector=	Emulator CCD
#Objective=	x100
#Grating=	1800 gr/mm
#ND Filter=	100%
#Laser (nm)=	512 
#Slit=	150.001
#Hole=	70.0087
#Project=	A
#Sample=	B
#Site=	C
#Title=	D_19
#Remark=	
#Date=	05.10.2017 11:30
#Acquired=	05.10.2017 11:30:40
-398.136	404.2
-397.506	426.604
-396.875	393.008
-396.245	392.011
-395.615	399.015
-394.985	387.219
-394.356	378.223
-393.726	413.427
-393.096	394.63
-392.466	412.234
-391.836	404.638
-391.206	439.842
-390.578	410.645
-389.948	402.649
-389.318	405.453
-388.688	400.057
-388.06	382.061
-387.43	380.464
-386.801	389.268
-386.171	412.872
-385.543	390.276
-384.913	389.28
-384.284	413.883
-383.656	418.487
-383.026	397.491
-382.397	362.095
-381.769	403.499
-381.14	390.102
-380.511	386.506
-379.883	391.11
-379.254	409.114
-378.625	406.318
-377.997	393.721
-377.368	372.325
-376.74	419.329
-376.111	377.933
-375.483	402.336
-374.855	403.14
-374.227	403.144
-373.598	391.148
-372.971	394.752
-372.342	412.155
-371.715	397.159
-371.086	382.563
-370.459	382.167
-369.83	384.971
-369.203	374.574
-368.574	391.978
-367.947	378.782
-367.32	408.186
-366.692	381.589
-366.065	420.193
-365.436	408.397
-364.809	385.601
-364.182	374.205
-363.554	400.008
-362.927	394.812
-362.301	395.816
-361.673	399.22
-361.046	415.824
-360.419	370.827
-359.791	405.831
-359.165	414.435
-358.538	387.639
-357.911	403.443
-357.284	381.646
-356.657	393.25
-356.031	367.854
-355.404	378.858
-354.778	415.862
-354.15	396.665
-353.524	389.469
-352.898	405.673
-352.272	414.477
-351.646	393.28
-351.019	373.284
-350.392	407.688
-349.766	374.892
-349.14	381.896
-348.514	401.299
-347.888	389.103
-347.262	378.907
-346.636	402.911
-346.011	406.515
-345.385	398.118
-344.759	377.322
-344.133	385.126
-343.508	387.33
-342.882	370.934
-342.257	405.337
-341.631	419.941
-341.005	393.745
-340.38	382.149
-339.755	393.352
-339.129	395.156
-338.504	394.96
-337.879	413.364
-337.253	403.568
-336.628	392.571
-336.004	373.975
-335.379	398.579
-334.754	369.983
-334.129	398.587
-333.504	391.59
-332.879	372.194
-332.255	368.798
-331.63	379.202
-331.005	390.006
-330.38	397.609
-329.756	388.013
-329.132	384.217
-328.507	411.021
-327.883	403.024
-327.258	411.628
-326.635	403.232
-326.01	403.236
-325.386	371.04
-324.762	391.643
-324.138	387.847
-323.514	390.251
-322.89	377.255
-322.266	402.659
-321.642	392.662
-321.019	377.866
-320.395	366.47
-319.77	380.074
-319.147	401.878
-318.523	391.681
-317.901	414.085
-317.277	380.489
-316.654	376.293
-316.03	389.096
-315.407	370.7
-314.783	388.704
-314.16	384.708
-313.537	384.912
-312.914	390.315
-312.291	397.319
-311.668	382.723
-311.045	383.727
-310.422	409.531
-309.799	388.134
-309.176	373.138
-308.553	396.942
-307.931	382.146
-307.309	383.95
-306.685	398.153
-306.063	395.157
-305.44	375.561
-304.818	384.565
-304.196	400.968
-303.573	393.372
-302.951	379.776
-302.329	381.78
-301.707	360.384
-301.084	390.387
-300.462	395.391
-299.841	392.195
-299.219	389.399
-298.596	373.203
-297.975	405.206
-297.353	376.61
-296.732	393.414
-296.109	381.818
-295.487	384.822
-294.866	400.425
-294.245	385.629
-293.623	385.033
-293.002	363.237
-292.38	364.841
-291.759	365.444
-291.137	379.448
-290.516	394.252
-289.895	410.056
-289.274	380.459
-288.653	364.063
-288.032	390.867
-287.411	397.871
-286.79	403.875
-286.169	380.078
-285.549	380.282
-284.928	395.486
-284.307	387.49
-283.686	382.694
-283.066	388.897
-282.445	365.501
-281.825	400.705
-281.204	385.509
-280.584	383.313
-279.963	378.916
-279.343	372.32
-278.722	392.724
-278.102	387.128
-277.482	390.331
-276.863	383.935
-276.242	380.939
-275.622	387.743
-275.002	381.147
-274.382	374.75
-273.762	371.154
-273.143	388.958
-272.523	373.962
-271.903	366.366
-271.283	375.569
-270.664	399.773
-270.045	385.177
-269.425	372.181
-268.805	364.785
-268.186	389.588
-267.567	363.792
-266.947	399.396
-266.329	379.8
-265.709	391.203
-265.09	374.407
-264.471	367.211
-263.852	358.415
-263.232	369.219
-262.614	373.222
-261.995	361.626
-261.377	347.43
-260.758	368.034
-260.138	365.038
-259.52	398.241
-258.901	391.445
-258.283	387.449
-257.664	375.253
-257.046	363.457
-256.427	384.26
-255.81	366.064
-255.191	369.868
-254.573	402.872
-253.954	388.875
-253.337	350.079
-252.718	373.883
-252.1	389.287
-251.482	385.691
-250.864	376.294
-250.247	397.098
-249.628	371.902
-249.011	367.106
-248.394	384.11
-247.775	375.913
-247.158	372.317
-246.541	376.521
-245.922	397.125
-245.305	376.329
-244.688	375.332
-244.07	390.736
-243.453	381.34
-242.836	352.744
-242.218	373.347
-241.601	392.751
-240.984	384.155
-240.368	407.759
-239.751	371.363
-239.133	369.566
-238.516	358.17
-237.9	387.974
-237.283	387.378
-236.666	372.182
-236.049	371.185
-235.432	385.589
-234.816	381.993
-234.199	367.597
-233.583	384.401
-232.967	365.604
-232.35	376.808
-231.734	386.612
-231.118	371.816
-230.502	362.419
-229.886	385.423
-229.269	365.427
-228.653	363.031
-228.037	388.235
-227.421	398.638
-226.805	366.442
-226.19	382.646
-225.574	364.65
-224.958	362.654
-224.342	380.657
-223.726	379.061
-223.111	402.865
-222.495	384.269
-221.879	350.873
-221.264	395.476
-220.648	381.08
-220.033	374.284
-219.418	378.688
-218.803	382.091
-218.187	373.495
-217.572	386.699
-216.957	340.103
-216.341	394.907
-215.727	374.91
-215.112	377.514
-214.497	369.918
-213.882	329.922
-213.268	387.526
-212.653	368.729
-212.038	381.933
-211.423	363.537
-210.809	370.341
-210.194	359.145
-209.579	382.948
-208.966	358.952
-208.351	362.556
-207.736	350.36
-207.123	359.363
-206.508	369.967
-205.894	385.971
-205.28	380.175
-204.665	389.379
-204.052	389.582
-203.437	375.186
-202.824	354.19
-202.21	357.194
-201.597	376.998
-200.982	389.401
-200.369	406.005
-199.755	353.209
-199.142	376.013
-198.528	367.417
-197.915	376.42
-197.301	372.024
-196.688	368.228
-196.074	361.632
-195.461	371.836
-194.847	355.839
-194.234	370.843
-193.622	375.247
-193.008	370.451
-192.395	376.654
-191.781	395.458
-191.169	366.862
-190.556	371.066
-189.943	380.87
-189.33	371.673
-188.718	352.877
-188.105	355.081
-187.492	374.485
-186.88	363.089
-186.267	373.692
-185.654	386.296
-185.042	368.3
-184.43	378.904
-183.818	369.707
-183.206	355.311
-182.592	348.715
-181.98	380.519
-181.369	380.323
-180.757	390.126
-180.145	367.13
-179.533	349.934
-178.92	374.938
-178.308	366.342
-177.697	381.145
-177.085	395.149
-176.473	379.153
-175.862	365.157
-175.25	366.161
-174.639	373.764
-174.027	355.768
-173.416	355.772
-172.804	370.976
-172.193	370.38
-171.582	375.983
-170.97	386.387
-170.359	383.191
-169.748	380.995
-169.137	378.998
-168.526	357.402
-167.915	364.606
-167.303	356.41
-166.692	364.614
-166.081	371.417
-165.471	384.621
-164.861	387.425
-164.25	357.029
-163.639	371.033
-163.028	364.836
-162.418	329.44
-161.807	350.244
-161.197	393.448
-160.587	366.251
-159.976	381.055
-159.366	370.659
-158.755	336.263
-158.146	362.667
-157.535	349.07
-156.925	376.674
-156.316	364.878
-155.705	364.082
-155.095	377.286
-154.485	375.689
-153.876	388.493
-153.266	391.497
-152.655	349.301
-152.046	373.505
-151.436	361.308
-150.827	366.312
-150.218	353.316
-149.608	361.12
-148.999	361.524
-148.389	370.127
-147.78	373.931
-147.17	356.335
-146.562	373.539
-145.952	383.542
-145.344	355.346
-144.734	385.15
-144.126	336.354
-143.516	380.158
-142.908	373.161
-142.298	343.165
-141.69	374.569
-141.08	420.773
-140.472	359.777
-139.863	365.58
-139.255	357.384
-138.647	352.588
-138.037	334.592
-137.429	381.996
-136.82	365.799
-136.212	353.803
-135.604	347.407
-134.995	393.411
-134.387	360.614
-133.78	354.218
-133.171	375.222
-132.563	376.826
-131.955	371.63
-131.348	358.433
-130.739	370.437
-130.131	351.241
-129.524	378.845
-128.916	363.049
-128.309	367.852
-127.7	352.456
-127.093	367.06
-126.485	370.464
-125.878	372.668
-125.271	383.671
-124.664	351.875
-124.055	393.679
-123.448	344.483
-122.841	373.286
-122.234	344.09
-121.627	390.894
-121.02	396.098
-120.413	365.302
-119.806	394.505
-119.199	346.509
-118.592	363.113
-117.985	376.717
-117.378	359.921
-116.772	378.524
-116.165	356.728
-115.558	367.332
-114.952	364.536
-114.345	382.14
-113.739	379.943
-113.132	386.547
-112.526	349.551
-111.919	352.955
-111.313	362.359
-110.707	343.962
-110.101	354.166
-109.495	343.97
-108.889	360.174
-108.282	359.777
-107.676	379.981
-107.07	340.385
-106.465	390.589
-105.859	346.193
-105.253	382.996
-104.647	384
-104.042	343.004
-103.436	363.608
-102.83	352.612
-102.225	359.815
-101.62	335.019
-101.014	349.823
-100.408	362.827
-99.8038	368.831
-99.1982	358.434
-98.5926	370.038
-97.9882	390.242
-97.3826	356.646
-96.7771	369.049
-96.1728	403.053
-95.5673	362.457
-94.9631	382.261
-94.3577	368.465
-93.7524	370.468
-93.1483	385.872
-92.5431	372.476
-91.939	360.48
-91.3338	367.884
-90.7299	364.087
-90.1248	353.891
-89.5209	352.495
-88.9159	379.499
-88.312	359.703
-87.7071	387.306
-87.1033	363.71
-86.4996	369.714
-85.8948	343.118
-85.2912	345.921
-84.6864	359.125
-84.0828	350.129
-83.4793	364.533
-82.8747	345.537
-82.2712	362.14
-81.6678	397.144
-81.0633	368.148
-80.4599	357.352
-79.8566	381.556
-79.2522	377.559
-78.649	362.363
-78.0458	387.567
-77.4426	365.571
-76.8384	360.175
-76.2353	386.178
-75.6322	372.182
-75.0293	363.786
-74.4251	376.99
-73.8222	372.793
-73.2193	365.197
-72.6164	349.801
-72.0136	375.205
-71.4109	383.209
-70.8069	380.012
-70.2042	352.216
-69.6016	373.82
-68.9989	344.624
-68.3964	373.028
-67.7938	365.631
-67.1913	362.035
-66.5888	346.839
-65.9864	369.643
-65.384	353.847
-64.7816	344.85
-64.1793	349.654
-63.577	369.058
-62.9747	393.062
-62.3725	343.266
-61.7703	344.869
-61.1682	345.873
-60.566	373.277
-59.964	357.281
-59.3619	352.484
-58.7599	388.088
-58.158	363.892
-57.556	373.096
-56.9553	356.3
-56.3535	380.103
-55.7517	363.507
-55.1499	382.911
-54.5481	341.915
-53.9464	348.719
-53.3459	353.122
-52.7443	377.526
-52.1427	342.33
-51.5412	338.134
-50.9408	383.737
-50.3393	336.541
-49.7379	361.145
-49.1365	351.749
-48.5363	370.153
-47.935	371.756
-47.3337	362.76
-46.7336	344.564
-46.1323	358.568
-45.5312	371.172
-44.9312	381.375
-44.3301	379.779
-43.729	376.583
-43.1291	353.987
-42.5281	349.991
-41.9283	370.994
-41.3274	355.198
-40.7265	380.802
-40.1268	353.206
-39.526	382.41
-38.9264	365.413
-38.3256	364.017
-37.7261	360.221
-37.1254	343.025
-36.526	370.428
-35.9254	344.032
-35.326	376.636
-34.7255	344.84
-34.1261	357.244
-33.5269	364.447
-32.9264	354.851
-32.3272	364.255
-31.7269	371.059
-31.1278	365.863
-30.5287	373.266
-29.9284	347.47
-29.3294	365.474
-28.7304	348.478
-28.1303	347.482
-27.5314	369.285
-26.9325	351.089
-26.3325	326.693
-25.7337	358.697
-25.1349	340.7
-24.5362	343.504
-23.9363	371.308
-23.3377	363.712
-22.7391	361.116
-22.1405	355.719
-21.5419	336.723
-20.9423	356.727
-20.3438	361.931
-19.7454	354.735
-19.147	344.338
-18.5486	341.342
-17.9503	389.546
-17.352	347.35
-16.7526	354.954
-16.1543	379.357
-15.5562	376.761
-14.958	337.765
-14.3599	380.769
-13.7618	363.572
-13.1638	352.776
-12.5658	369.18
-11.9678	361.384
-11.3699	354.388
-10.772	354.391
-10.1742	366.595
-9.57636	347.199
-8.97858	363.603
-8.38084	365.407
-7.78314	365.61
-7.18547	355.214
-6.58784	374.018
-5.99141	350.222
-5.39385	376.826
-4.79632	380.229
-4.19884	345.033
-3.60139	340.037
-3.00398	342.441
-2.4066	354.844
-1.81043	358.848
-1.21312	348.252
-0.615856	364.456
-0.0186265	364.26
0.577403	374.463
1.17572	365.267
1.77168	365.871
2.3676	353.475
2.96581	353.879
3.56166	362.882
4.15747	365.286
4.75557	364.89
5.35131	375.894
5.94701	350.098
6.545	366.701
7.14063	378.905
7.73623	348.909
8.33411	379.913
8.92963	374.716
9.52511	352.72
10.1229	351.524
10.7183	346.928
11.3137	365.132
11.909	333.135
12.5066	375.939
13.1019	373.743
13.6971	349.547
14.2923	337.751
14.8898	380.754
15.4849	350.958
16.08	358.362
16.6751	343.366
17.2724	384.97
17.8674	325.973
18.4623	342.977
19.0572	357.581
19.6521	340.185
20.2492	355.788
20.844	342.192
21.4388	372.196
22.0335	350.6
22.6282	363.004
23.2228	350.607
23.8198	340.411
24.4143	370.015
25.0089	352.619
25.6034	388.823
26.1978	355.626
26.7923	365.03
27.3867	352.634
27.9833	365.438
28.5777	365.642
29.172	349.245
29.7662	359.649
30.3604	348.453
30.9546	354.657
31.5487	343.06
32.1428	354.864
32.7369	359.268
33.3309	364.272
33.9249	372.276
34.5189	348.879
35.1151	365.283
35.709	340.087
36.3029	358.491
36.8967	365.895
37.4905	364.498
38.0842	354.302
38.6779	366.706
39.2716	373.51
39.8652	364.114
40.4588	351.117
41.0524	379.121
41.6459	358.325
42.2394	367.929
42.8328	384.732
43.4263	357.336
44.0173	366.14
44.6107	377.544
45.204	370.148
45.7973	361.951
46.3905	364.155
46.9837	343.959
47.5769	348.763
48.17	338.567
48.7631	346.37
49.3561	355.974
49.9491	361.778
50.5421	362.582
51.1351	341.186
51.7257	354.389
52.3186	340.993
52.9114	371.397
53.5042	360.201
54.097	346.005
54.6897	368.608
55.2824	352.212
55.8727	351.016
56.4654	345.22
57.0579	373.223
57.6505	361.227
58.243	353.831
58.8355	367.835
59.4256	371.239
60.018	354.242
60.6104	337.046
61.2027	364.45
61.795	373.454
62.385	374.458
62.9772	357.661
63.5694	374.465
64.1615	347.069
64.7514	364.873
65.3434	362.677
65.9355	342.88
66.5275	345.084
67.1172	379.488
67.7091	356.692
68.301	365.095
68.8905	361.699
69.4824	346.103
70.0742	345.907
70.6659	365.511
71.2553	319.914
71.847	338.318
72.4387	371.722
73.028	346.726
73.6196	372.93
74.2111	381.533
74.8003	358.137
75.3918	327.741
75.9832	343.545
76.5723	348.749
77.1637	377.952
77.7527	333.756
78.344	350.16
78.9352	370.964
79.5242	347.967
80.1153	374.571
80.7042	343.575
81.2953	363.179
81.8864	345.983
82.4751	354.386
83.0661	334.19
83.6548	378.394
84.2457	357.798
84.8343	362.402
85.4251	375.805
86.0137	361.009
86.6045	340.013
87.1952	347.617
87.7836	345.821
88.3743	345.624
88.9626	358.628
89.5533	361.832
90.1415	351.436
90.7321	336.639
91.3203	375.843
91.9107	341.847
92.4989	347.251
93.0892	336.055
93.6773	354.458
94.2653	345.862
94.8556	346.666
95.4436	344.67
96.0338	345.074
96.6217	355.077
97.2118	362.681
97.7996	354.285
98.3874	334.089
98.9774	365.893
99.5651	346.896
100.155	371.7
100.743	341.104
101.33	354.508
101.92	362.311
102.508	366.715
103.097	354.519
103.685	333.923
104.272	383.327
104.862	343.53
105.449	337.334
106.037	357.538
106.626	358.142
107.213	340.346
107.801	335.749
108.39	354.153
108.977	332.357
109.564	346.561
110.154	332.365
110.741	368.768
111.328	363.572
111.915	356.576
112.504	342.98
113.091	366.784
113.678	365.387
114.264	354.591
114.854	357.595
115.44	344.799
116.027	370.602
116.614	373.806
117.203	337.21
117.789	344.014
118.376	370.218
118.962	336.821
119.549	358.425
120.137	360.029
120.724	368.033
121.31	352.437
121.897	371.04
122.483	373.244
123.072	365.448
123.658	359.452
124.244	370.055
124.83	344.659
125.416	365.863
126.002	368.467
126.588	357.271
127.177	338.874
127.763	361.078
128.349	362.282
128.935	362.486
129.521	375.49
130.106	340.693
130.692	364.897
131.278	385.701
131.864	358.105
132.449	366.909
133.035	354.112
133.623	342.116
134.209	348.52
134.794	375.724
135.38	366.328
135.965	361.931
136.551	342.735
137.136	362.539
137.722	334.743
138.307	356.746
138.892	354.75
139.477	351.554
140.063	350.358
140.648	392.362
141.233	345.165
141.818	338.169
142.403	337.173
142.988	357.177
143.574	373.781
144.159	350.584
144.741	369.388
145.326	380.592
145.911	335.996
146.496	360.4
147.081	343.403
147.665	360.807
148.25	372.011
148.835	354.815
149.42	363.218
150.004	373.622
150.589	352.226
151.171	340.03
151.756	347.834
152.34	358.837
152.925	341.041
153.509	344.645
154.094	347.649
154.678	356.653
155.26	344.856
155.844	361.26
156.429	347.264
157.013	357.468
157.597	365.272
158.181	369.275
158.763	378.279
159.347	372.483
159.931	366.287
160.515	343.49
161.097	353.294
161.681	371.244
162.265	379.523
162.849	347.585
163.432	362.474
164.014	368.788
164.598	358.902
165.181	333.531
165.763	338.246
166.346	372.832
166.93	349.24
167.514	340.906
168.095	349.631
168.679	347.407
169.262	342.381
169.843	334.315
170.427	357.839
171.01	349.014
171.591	359.303
172.174	362.841
172.758	363.839
173.339	346.379
173.922	355.68
174.505	336.689
175.086	359.928
175.669	360.853
176.252	368.295
176.833	365.991
177.416	373.685
177.996	350.746
178.579	348.174
179.162	350.276
179.743	366.014
180.326	348.191
180.906	341.853
181.489	346.122
182.069	354.268
182.652	335.155
183.232	347.194
183.815	359.294
184.398	356.802
184.978	346.656
185.56	363.104
186.141	357.648
186.723	358.942
187.303	350.938
187.885	343.209
188.465	353.028
189.048	362.587
189.628	352.556
190.21	358.536
190.79	340.542
191.372	350.849
191.952	354.66
192.532	341.32
193.114	354.895
193.693	341.468
194.275	349.216
194.855	354.141
195.437	347.562
196.017	347.046
196.596	362.111
197.178	356.116
197.758	352.329
198.339	346.618
198.919	352.475
199.498	366.884
200.08	350.89
200.659	359.839
201.238	365.973
201.82	367.318
202.399	345.977
202.978	356.039
203.56	361.419
204.139	363.814
204.718	357.412
205.299	355.297
205.878	358.019
206.457	352.015
207.038	351.551
207.617	342.746
208.196	339.905
208.777	369.505
209.356	342.1
209.935	355.148
210.514	351.27
211.094	355.434
211.673	355.596
212.252	353.304
212.83	359.438
213.411	365.386
213.99	363.113
214.568	338.717
215.147	331.702
215.725	326.733
216.306	348.112
216.884	348.101
217.462	355.619
218.041	361.84
218.619	376.914
219.197	371.662
219.778	365.321
219.803	364.987
220.388	346.189
220.972	345.191
221.557	339.193
222.142	355.195
222.727	360.397
223.312	368.799
223.897	336.6
224.481	375.802
225.066	349.004
225.651	363.406
226.235	349.408
226.82	343.21
227.402	341.212
227.987	337.014
228.571	343.816
229.155	358.218
229.74	363.22
230.324	347.822
230.909	346.424
231.493	356.226
232.077	362.028
232.659	351.43
233.243	342.232
233.827	362.234
234.412	355.636
234.996	324.438
235.58	364.24
236.164	331.042
236.745	352.844
237.329	354.445
237.913	338.847
238.497	369.249
239.081	347.451
239.662	366.453
240.246	336.255
240.83	352.657
241.414	340.659
241.997	349.461
242.579	340.263
243.162	338.665
243.746	359.667
244.329	351.069
244.91	348.071
245.494	349.473
246.077	360.675
246.661	352.077
247.242	336.879
247.825	367.081
248.408	343.883
248.989	351.085
249.573	356.287
250.156	321.489
250.739	359.09
251.32	351.892
251.903	338.094
252.486	370.896
253.066	330.498
253.649	360.7
254.232	354.502
254.813	371.304
255.396	329.106
255.979	349.508
256.559	366.71
257.142	359.912
257.722	367.514
258.305	356.116
258.888	342.518
259.468	344.12
260.05	346.322
260.633	332.124
261.213	341.726
261.796	361.128
262.376	352.13
262.958	350.132
263.538	340.734
264.121	378.335
264.703	364.737
265.283	349.539
265.865	357.741
266.445	360.143
267.027	361.545
267.607	342.547
268.189	362.749
268.769	352.151
269.351	341.753
269.931	334.755
270.512	361.157
271.092	340.159
271.674	366.761
272.254	343.363
272.835	336.365
273.415	330.767
273.997	355.169
274.576	364.971
275.158	332.573
275.737	363.375
276.319	364.177
276.898	342.979
277.479	364.38
278.059	341.182
278.638	338.984
279.219	345.386
279.798	344.188
280.38	362.99
280.959	358.192
281.54	325.194
282.119	351.796
282.698	313.798
283.279	345.8
283.858	350.002
284.439	363.404
285.018	353.006
285.596	355.808
286.177	369.61
286.756	341.612
287.335	329.014
287.916	343.616
288.494	360.018
289.073	338.82
289.654	364.822
290.232	356.624
290.811	357.625
291.391	344.627
291.97	373.629
292.548	357.831
293.126	334.633
293.707	346.635
294.285	327.237
294.863	372.239
295.444	367.441
296.022	347.843
296.6	348.845
297.178	331.847
297.758	350.049
298.336	344.851
298.914	342.453
299.492	352.055
300.072	347.457
300.65	365.059
301.228	356.661
301.806	335.863
302.383	335.865
302.963	351.067
303.541	347.669
304.119	350.87
304.696	343.872
305.274	362.074
305.854	367.476
306.431	354.878
307.009	358.88
307.586	366.282
308.164	319.884
308.741	360.886
309.318	358.288
309.898	355.09
310.475	357.692
311.052	342.094
311.629	348.296
312.207	351.298
312.784	336.5
313.361	320.302
313.938	368.504
314.515	340.906
315.094	344.108
315.671	368.31
316.248	348.312
316.825	369.714
317.402	355.315
317.979	364.317
318.555	327.319
319.132	342.321
319.709	328.923
320.285	339.725
320.862	347.527
321.439	347.929
322.015	340.731
322.592	340.933
323.168	339.135
323.745	350.337
324.321	344.539
324.898	347.741
325.474	345.943
326.05	373.145
326.627	364.147
327.203	356.349
327.779	344.351
328.355	331.753
328.931	362.955
329.508	361.157
330.084	343.358
330.66	360.76
331.236	370.962
331.809	351.764
332.385	341.366
332.961	349.168
333.537	351.57
334.113	346.972
334.689	346.174
335.265	336.776
335.84	333.978
336.416	354.58
336.992	338.382
337.565	335.184
338.141	345.786
338.716	351.788
339.292	332.59
339.867	331.592
340.443	369.194
341.016	358.796
341.591	344.398
342.167	361.8
342.742	363.602
343.317	353.603
343.893	369.205
344.466	324.607
345.041	355.809
345.616	334.811
346.191	329.613
346.764	374.815
347.339	335.217
347.914	345.219
348.489	329.821
349.062	333.823
349.637	359.025
350.212	360.827
350.786	357.429
351.359	350.031
351.934	351.033
352.508	355.835
353.083	323.037
353.656	328.039
354.23	358.641
354.805	358.643
355.377	334.245
355.952	355.047
356.526	322.648
357.098	344.65
357.673	341.052
358.247	355.454
358.819	357.656
359.394	335.458
359.968	333.86
360.54	338.862
361.114	347.864
361.688	336.866
362.26	373.268
362.834	343.87
363.406	373.672
363.98	363.074
364.554	354.876
365.126	349.078
365.7	349.88
366.272	360.082
366.846	361.484
367.419	378.886
367.991	357.888
368.565	373.69
369.136	337.092
369.71	327.493
370.281	352.095
370.855	321.097
371.427	361.099
372	361.901
372.571	353.503
373.145	340.905
373.716	383.707
374.29	351.909
374.861	360.111
375.434	347.513
376.005	353.715
376.578	363.917
377.15	343.519
377.723	343.121
378.294	358.523
378.867	356.725
379.438	345.527
380.011	342.329
380.582	343.931
381.155	347.533
381.725	350.335
382.296	359.337
382.869	342.739
383.44	368.94
384.013	351.342
384.583	356.544
385.154	344.746
385.727	331.948
386.297	347.75
386.87	338.752
387.44	348.554
388.01	361.356
388.583	351.958
389.153	358.36
389.724	361.362
390.296	330.964
390.866	331.966
391.436	344.168
392.009	323.57
392.579	351.572
393.149	339.774
393.721	339.776
394.291	359.778
394.861	350.18
395.433	360.182
396.003	363.783
396.573	351.385
397.143	370.187
397.715	342.189
398.285	339.591
398.855	337.393
399.424	328.795
399.996	362.397
400.566	348.999
401.135	359.001
401.705	352.003
402.277	370.405
402.846	330.007
403.416	371.009
403.985	346.811
404.555	335.013
405.126	363.215
405.695	351.217
406.265	338.419
406.834	348.421
407.403	341.223
407.975	356.825
408.544	334.627
409.113	352.629
409.682	343.63
410.251	338.232
410.82	345.434
411.389	348.836
411.96	340.238
412.529	341.44
413.098	360.442
413.667	351.244
414.236	349.646
414.805	374.048
415.373	354.85
415.942	342.452
416.511	344.254
417.079	350.256
417.65	331.458
418.219	352.46
418.787	336.862
419.356	342.064
419.924	351.069
420.493	379.675
421.061	369.88
421.63	350.285
422.198	341.891
422.766	352.896
423.334	325.702
423.903	360.507
424.471	368.112
425.039	346.318
425.607	352.323
426.175	355.329
426.743	343.334
427.311	354.939
427.879	355.945
428.447	337.55
429.015	345.156
429.583	344.761
430.151	349.966
430.719	314.572
431.285	354.177
431.852	369.983
432.42	343.988
432.988	368.193
433.555	349.999
434.123	371.204
434.691	358.61
435.258	351.415
435.826	342.62
436.393	348.626
436.959	363.631
437.526	378.837
438.093	334.642
438.661	335.647
439.228	349.453
439.795	354.858
440.363	320.664
440.928	351.869
441.495	356.274
442.062	363.88
442.629	337.685
443.196	324.291
443.763	359.096
444.328	354.101
444.895	369.707
445.462	344.912
446.029	341.918
446.594	345.523
447.16	368.128
447.727	378.934
448.294	350.139
448.859	366.145
449.425	358.15
449.992	340.955
450.559	348.361
451.123	347.766
451.69	319.372
452.256	355.777
452.823	357.782
453.387	356.588
453.954	345.593
454.52	351.399
455.084	343.004
455.65	316.609
456.217	362.815
456.781	366.22
457.347	362.026
457.913	360.831
458.477	358.436
459.043	358.642
459.61	361.447
460.173	352.253
460.74	320.658
461.306	349.463
461.869	360.469
462.435	338.074
462.999	337.68
463.565	361.485
464.131	354.29
464.694	351.496
465.26	342.301
465.824	340.507
466.389	358.712
466.955	330.517
467.518	354.923
468.084	362.328
468.647	345.934
469.213	367.739
469.776	335.744
470.342	364.55
470.905	369.355
471.47	358.961
472.034	355.166
472.599	331.571
473.162	353.777
473.727	337.382
474.29	342.588
474.856	354.393
475.419	366.598
475.984	346.004
476.547	358.209
477.112	338.815
477.674	352.42
478.24	379.825
478.802	346.431
479.367	365.036
479.93	357.042
480.493	333.647
481.057	360.452
481.62	333.458
482.185	345.263
482.747	348.469
483.31	348.074
483.875	359.479
484.437	340.885
485.002	371.09
485.564	354.296
486.126	370.701
486.691	364.106
487.253	336.112
487.815	366.917
488.38	319.523
488.942	345.328
489.504	361.333
490.068	345.939
490.63	334.944
491.192	324.35
491.757	345.555
492.319	343.16
492.881	368.766
493.445	370.771
494.007	356.377
494.568	358.182
495.13	343.187
495.694	352.993
496.256	349.598
496.818	355.004
497.379	355.009
497.943	337.014
498.505	379.62
499.066	334.825
499.628	340.231
500.192	372.636
500.753	359.441
501.314	359.847
501.876	354.652
502.437	368.458
503.001	348.663
503.562	316.468
504.123	356.074
504.685	373.879
505.246	351.085
505.809	346.69
506.37	334.695
506.931	324.101
507.492	353.906
508.054	349.712
508.615	346.117
509.176	359.122
509.739	360.128
510.3	341.533
510.86	357.339
511.421	362.944
511.982	344.949
512.543	344.755
513.104	357.36
513.664	383.166
514.225	360.371
514.786	379.776
515.346	377.582
515.907	368.187
516.47	365.793
517.03	334.598
517.591	362.203
518.151	375.409
518.711	363.214
519.272	345.62
519.832	343.425
520.392	351.831
520.953	362.836
521.513	337.241
522.073	351.247
522.633	336.252
523.193	348.258
523.754	376.463
524.314	385.868
524.874	341.074
525.434	339.679
525.994	362.485
526.552	331.69
527.111	359.095
527.671	368.501
528.231	356.906
528.791	346.712
529.351	338.717
529.91	344.522
530.47	331.128
531.03	336.933
531.59	337.739
532.149	344.144
532.707	345.749
533.266	352.955
533.826	356.56
534.385	339.566
534.945	350.171
535.504	357.776
536.063	331.982
536.623	352.587
537.18	331.993
537.739	351.198
538.298	345.203
538.858	343.609
539.417	340.414
539.974	337.42
540.533	356.825
541.092	367.63
541.651	359.836
542.21	360.041
542.767	344.247
543.326	332.852
543.885	341.257
544.444	353.463
545	343.868
545.559	341.074
546.118	341.679
546.677	336.884
547.233	327.29
547.792	366.095
548.351	355.301
548.907	357.706
549.466	370.111
550.024	344.717
550.583	341.522
551.139	355.128
551.698	361.333
552.256	359.338
552.812	356.544
553.37	364.549
553.929	359.755
554.485	345.36
555.043	344.165
555.601	350.971
556.157	348.976
556.716	352.782
557.272	366.387
557.83	369.592
558.388	354.398
558.944	340.603
559.502	336.609
560.057	333.614
560.615	369.219
561.173	355.425
561.729	368.83
562.287	376.436
562.842	361.441
563.4	372.846
563.956	339.652
564.513	356.257
565.069	346.863
565.627	349.068
566.184	339.073
566.74	353.479
567.297	343.884
567.852	343.29
568.41	348.695
568.965	349.3
569.523	372.106
570.078	343.911
570.633	327.517
571.19	352.122
571.745	366.927
572.303	330.333
572.858	345.538
573.415	362.944
573.97	336.549
574.527	343.554
575.082	368.16
575.639	354.965
576.194	357.571
576.749	352.376
577.306	337.981
577.86	356.187
578.417	356.992
578.972	363.198
579.526	358.203
580.083	361.608
580.638	355.014
581.192	356.219
581.749	370.625
582.304	351.23
582.858	335.835
583.415	359.241
583.969	359.846
584.523	363.252
585.08	350.257
585.634	355.462
586.188	352.268
586.745	371.473
587.299	335.279
587.853	377.684
588.409	351.489
588.964	366.495
589.518	351.5
590.072	369.506
590.628	340.311
591.182	365.316
591.736	347.522
592.29	357.527
592.846	355.533
593.399	351.138
593.953	363.943
594.507	368.549
595.063	366.954
595.617	335.36
596.17	348.365
596.724	352.57
597.277	347.776
597.833	348.381
598.387	342.187
598.94	363.792
599.494	339.797
600.047	346.803
600.601	363.008
601.156	352.014
601.71	322.019
602.263	338.024
602.816	367.43
603.369	378.035
603.923	350.041
604.476	348.846
605.029	332.051
605.582	347.857
606.137	379.862
606.69	356.868
607.243	354.273
607.796	362.478
608.349	359.884
608.902	362.889
609.455	328.095
610.008	342.5
610.561	349.905
611.114	336.311
611.666	337.516
612.219	345.922
612.772	345.527
613.324	363.733
613.877	344.538
614.43	344.743
614.982	348.949
615.535	347.154
616.087	362.56
616.64	356.965
617.192	348.17
617.745	346.576
618.297	344.181
618.849	348.387
619.402	332.392
619.954	383.597
620.506	342.203
621.058	348.408
621.61	336.214
622.163	369.619
622.715	340.424
623.265	358.83
623.817	361.235
624.369	352.641
624.921	320.246
625.473	353.051
626.025	363.857
626.576	352.062
627.128	336.668
627.678	331.273
628.23	360.678
628.781	389.284
629.333	368.089
629.885	343.295
630.437	365.1
630.986	349.905
631.538	361.311
632.089	348.716
632.641	355.922
633.192	356.927
633.744	342.532
634.293	346.538
634.844	376.543
635.396	356.749
635.947	347.954
636.496	358.759
637.047	350.765
637.599	340.77
638.15	362.176
638.699	324.781
639.25	368.786
639.801	336.792
640.352	330.997
640.901	351.403
641.452	364.808
642.003	331.013
642.552	347.019
643.103	351.224
643.654	348.83
644.202	346.435
644.753	364.84
645.304	337.046
645.853	350.851
646.403	353.657
646.954	353.862
647.503	347.067
648.053	355.473
648.604	369.878
649.152	358.284
649.703	342.889
650.251	352.894
650.802	374.3
651.352	354.705
651.9	340.111
652.451	357.316
652.999	355.721
653.549	375.927
654.097	330.932
654.648	362.538
655.198	331.143
655.746	355.148
656.296	361.354
656.844	375.759
657.394	357.965
657.942	360.17
658.492	342.575
659.04	335.381
659.59	334.386
660.137	348.392
660.687	349.197
661.235	325.402
661.785	354.808
662.332	344.213
662.882	362.019
663.43	338.424
663.979	346.829
664.527	338.235
665.077	340.44
665.624	333.846
666.171	357.851
666.721	340.656
667.268	352.262
667.818	347.067
668.365	358.073
668.912	353.278
669.462	335.483
670.009	373.689
670.558	339.294
671.105	349.1
671.652	360.905
672.202	356.91
672.749	364.916
673.296	346.121
673.845	360.127
674.392	357.332
674.939	354.137
675.488	350.943
676.035	334.148
676.581	345.154
677.13	332.759
677.677	322.364
678.224	342.77
678.773	349.975
679.319	361.381
679.866	354.586
680.412	329.591
680.961	331.997
681.508	344.002
682.054	372.608
682.601	353.613
683.149	327.818
683.696	367.824
684.242	338.429
684.788	383.635
685.337	336.84
685.883	347.445
686.429	331.251
686.975	320.656
687.522	340.062
688.07	356.267
688.616	380.572
689.162	338.113
689.708	325.549
690.254	356.536
690.8	338.935
691.348	341.133
691.894	366.318
692.44	349.375
692.986	347.674
693.532	349.157
694.078	355.533
694.623	347.105
695.169	355.389
695.717	356.747
696.263	356.381
696.808	356.381
697.354	358.71
697.899	348.55
698.445	335.476
698.99	374.15
699.536	356.304
700.081	352.74
700.627	339.849
701.172	352.379
701.717	360.73
702.263	341.085
702.808	352.389
703.353	352.285
703.898	350.854
704.444	348.717
704.989	359.027
705.534	351.253
706.079	365.042
706.624	355.275
707.169	344.97
707.714	361.666
708.259	353.537
708.804	346.553
709.349	352.263
709.894	364.096
710.439	362.942
710.983	349.63
711.528	354.316
712.073	365.012
712.618	353.583
713.16	360.323
713.705	353.948
714.249	347.958
714.794	359.706
715.339	369.547
715.883	387.899
716.428	350.935
716.972	348.058
717.514	355.079
718.059	346.015
718.603	353.699
719.147	353.38
719.692	338.426
720.236	367.384
720.778	352.361
721.322	341.705
721.867	354.859
722.411	341.958
722.955	359.965
723.497	355.946
724.041	347.01
724.585	339.466
725.129	351.111
725.671	342.34
726.215	347.874
726.758	340.883
727.302	357.981
727.844	353.836
728.388	349.216
728.932	352.688
729.475	352.555
730.017	355.883
730.56	358.992
731.104	339.767
731.646	336.746
732.189	353.065
732.733	357.002
733.274	357.742
733.818	349.877
734.361	352.266
734.902	353.43
735.446	360.582
735.989	340.543
736.53	328.62
737.074	342.765
737.617	342.719
738.158	344.66
738.701	352.509
739.242	359.881
739.785	359.404
740.328	357.548
740.546	358.242
741.093	340.843
741.641	359.445
742.19	349.047
742.737	355.649
743.287	352.85
743.834	359.852
744.383	350.854
744.931	345.856
745.48	328.057
746.027	369.859
746.576	338.461
747.123	359.463
747.67	340.664
748.219	365.866
748.766	350.668
749.315	347.87
749.862	337.071
750.409	344.673
750.958	351.075
751.505	366.677
752.054	352.278
752.6	356.48
753.147	352.282
753.696	336.484
754.242	330.885
754.789	343.887
755.338	349.289
755.884	349.491
756.431	337.292
756.979	358.294
757.526	349.296
758.072	346.298
758.621	370.3
759.167	354.501
759.713	352.103
760.262	359.705
760.808	364.906
761.354	356.308
761.9	359.91
762.449	359.912
762.995	327.314
763.541	388.515
764.087	344.917
764.635	371.719
765.181	365.121
765.727	360.122
766.273	350.524
766.821	355.726
767.367	349.728
767.912	358.729
768.458	353.131
769.004	373.133
769.552	343.135
770.098	370.936
770.643	319.338
771.189	341.14
771.734	353.742
772.282	343.743
772.828	346.945
773.373	344.347
773.919	357.949
774.464	346.15
775.009	324.952
775.555	347.154
776.102	349.556
776.648	361.957
777.193	339.759
777.738	341.561
778.283	341.763
778.829	355.764
779.374	364.166
779.919	351.168
780.464	355.57
781.009	373.172
781.556	358.973
782.101	347.775
782.646	350.177
783.191	354.379
783.736	370.58
784.281	363.982
784.826	375.984
785.37	327.586
785.915	351.787
786.46	345.989
787.005	351.391
787.549	336.193
788.094	378.994
788.639	349.596
789.183	333.798
789.728	345.8
790.272	378.001
790.817	349.603
791.361	351.005
791.906	347.007
792.45	337.008
792.994	371.41
793.539	350.812
794.083	330.014
794.627	339.815
795.171	335.017
795.713	376.619
796.258	360.021
796.802	350.622
797.346	365.024
797.89	325.226
798.434	360.828
798.978	363.229
799.522	347.831
800.066	360.233
800.61	327.635
801.152	368.036
801.695	349.038
802.239	351.84
802.783	367.442
803.327	367.044
803.871	357.845
804.414	361.247
804.956	338.049
805.499	361.451
806.043	346.252
806.587	357.854
807.13	363.456
807.671	378.058
808.215	355.859
808.758	349.861
809.302	356.663
809.845	375.865
810.386	355.866
810.93	350.668
811.473	349.47
812.016	365.672
812.557	349.873
813.101	349.875
813.644	341.677
814.187	341.879
814.728	347.08
815.271	335.082
815.814	354.684
816.357	361.486
816.898	362.287
817.441	336.089
817.984	346.091
818.524	364.293
819.067	374.495
819.61	351.296
820.151	340.498
820.693	358.7
821.236	337.902
821.777	369.503
822.319	375.305
822.862	353.307
823.402	330.109
823.945	355.71
824.487	360.112
825.028	361.914
825.57	349.116
826.111	385.717
826.653	370.919
827.195	376.321
827.736	363.123
828.278	327.924
828.818	350.326
829.36	362.328
829.9	325.33
830.443	341.931
830.985	360.333
831.525	349.535
832.067	385.937
832.607	353.938
833.149	338.54
833.689	341.942
834.231	335.744
834.77	350.545
835.312	362.347
835.852	373.349
836.394	363.551
836.933	373.952
837.475	372.154
838.015	352.756
838.557	344.158
839.096	325.159
839.638	363.761
840.177	345.563
840.719	369.765
841.258	335.966
841.8	355.568
842.339	340.37
842.878	333.972
843.42	339.774
843.959	345.975
844.501	340.377
845.04	343.579
845.579	361.581
846.12	352.782
846.659	379.984
847.201	362.386
847.74	358.988
848.279	346.789
848.82	358.191
849.359	347.193
849.9	328.595
850.439	343.796
850.977	356.798
851.518	359.4
852.057	354.002
852.596	363.003
853.137	339.605
853.676	364.407
854.214	351.409
854.753	351.01
855.294	381.012
855.832	356.014
856.371	361.216
856.911	345.417
857.45	350.019
857.988	362.621
858.527	379.423
859.067	380.424
859.606	367.826
860.144	354.428
860.682	355.23
861.223	343.831
861.761	369.633
862.299	361.235
862.837	342.237
863.378	380.039
863.916	359.24
864.454	343.042
864.992	358.044
865.53	358.646
866.07	335.447
866.608	373.649
867.146	364.051
867.684	330.653
868.222	358.054
868.76	343.456
869.3	373.858
869.837	333.46
870.375	343.261
870.913	347.663
871.45	341.465
871.988	350.667
872.526	337.868
873.063	372.47
873.603	338.872
874.141	341.074
874.678	377.675
875.216	336.477
875.753	357.079
876.29	359.681
876.828	375.482
877.365	348.684
877.902	346.286
878.44	357.688
878.977	352.889
879.514	356.091
880.051	347.093
880.589	345.295
881.126	367.897
881.663	369.498
882.2	365.9
882.737	337.302
883.274	347.704
883.811	351.105
884.348	355.707
884.885	341.709
885.422	353.911
885.958	344.312
886.495	361.714
887.032	331.916
887.569	365.918
888.105	366.319
888.642	344.521
889.179	340.323
889.715	350.725
890.252	345.726
890.789	351.528
891.325	355.33
891.862	347.732
892.398	356.733
892.932	382.135
893.469	338.337
894.005	344.939
894.542	360.14
895.078	347.942
895.614	347.944
896.15	370.346
896.687	368.747
897.221	365.749
897.757	342.551
898.293	374.553
898.829	370.354
899.365	354.556
899.901	367.958
900.435	361.76
900.971	355.561
901.507	357.563
902.043	363.965
902.579	362.567
903.113	348.569
903.649	370.17
904.184	351.572
904.72	369.574
905.254	317.376
905.789	350.577
906.325	369.579
906.861	348.181
907.394	349.183
907.93	362.584
908.465	354.186
909.001	371.988
909.534	357.79
910.07	354.791
910.605	337.593
911.138	364.195
911.674	369.597
912.209	360.198
912.744	360.6
913.278	370.202
913.813	360.404
914.348	348.005
914.881	374.807
915.416	378.609
915.949	348.811
916.484	360.612
917.019	362.214
917.552	352.016
918.087	366.218
918.622	352.219
919.155	360.421
919.69	336.023
920.223	362.225
920.758	356.227
921.293	359.628
921.825	356.63
922.36	340.832
922.893	353.634
923.427	365.035
923.96	349.437
924.494	352.439
925.029	341.641
925.561	352.842
926.096	354.044
926.628	360.246
927.163	378.448
927.695	344.049
928.23	330.651
928.762	370.853
929.296	340.055
929.828	351.856
930.363	367.658
930.895	350.86
931.429	353.062
931.961	362.463
932.495	351.065
933.027	335.267
933.559	349.669
934.094	359.27
934.625	364.072
935.159	370.474
935.691	362.076
936.225	340.477
936.757	341.879
937.289	369.081
937.823	341.283
938.354	337.084
938.888	342.686
939.42	363.288
939.952	339.69
940.485	343.291
941.017	348.093
941.551	338.095
942.082	341.697
942.614	347.099
943.147	362.5
943.679	354.502
944.21	351.104
944.743	347.506
945.275	363.907
945.806	376.309
946.339	360.111
946.871	376.513
947.402	356.114
947.933	385.516
948.466	375.118
948.997	368.72
949.529	382.921
950.062	369.123
950.593	359.925
951.124	345.127
951.655	336.928
952.188	356.93
952.719	359.132
953.249	376.334
953.78	366.135
954.313	362.537
954.844	366.139
955.375	386.341
955.905	362.942
956.436	351.144
956.969	362.946
957.5	379.348
958.03	372.749
958.561	368.351
959.091	349.753
959.622	346.355
960.154	345.156
960.685	358.358
961.215	343.16
961.746	348.762
962.276	354.163
962.806	372.765
963.337	343.567
963.869	343.169
964.399	347.971
964.929	378.772
965.46	357.374
965.99	346.176
966.52	355.378
967.05	357.579
967.58	377.181
968.11	365.983
968.64	343.185
969.17	358.386
969.7	339.188
970.23	344.79
970.762	363.392
971.292	350.993
971.821	376.595
972.351	351.197
972.881	371.999
973.411	367
973.94	374.802
974.47	367.204
975	352.206
975.529	374.007
976.059	350.009
976.588	350.811
977.118	367.613
977.645	372.014
978.175	333.216
978.704	370.218
979.234	364.02
979.763	334.621
980.292	351.623
980.822	360.425
981.351	353.827
981.88	343.428
982.409	364.63
982.938	364.432
983.468	339.034
983.997	331.436
984.524	377.037
985.053	357.239
985.582	359.041
986.111	352.843
986.64	365.644
987.169	372.646
987.698	338.248
988.224	376.65
988.753	357.851
989.282	365.453
989.811	366.255
990.34	382.457
990.868	367.458
991.395	369.06
991.924	352.662
992.452	342.464
992.981	352.865
993.509	361.067
994.036	341.069
994.564	346.271
995.093	367.472
995.621	372.874
996.148	347.476
996.676	373.478
997.204	358.279
997.733	358.481
998.259	346.683
998.787	358.685
999.315	353.486
999.844	362.288
